%OpenBCI Raw EEG Data
%Number of channels = 16
%Sample Rate = 125 Hz
%Board = OpenBCI_GUI$BoardCytonSerialDaisy
Sample Index, EXG Channel 0, EXG Channel 1, EXG Channel 2, EXG Channel 3, EXG Channel 4, EXG Channel 5, EXG Channel 6, EXG Channel 7, EXG Channel 8, EXG Channel 9, EXG Channel 10, EXG Channel 11, EXG Channel 12, EXG Channel 13, EXG Channel 14, EXG Channel 15, Accel Channel 0, Accel Channel 1, Accel Channel 2, Other, Other, Other, Other, Other, Other, Other, Analog Channel 0, Analog Channel 1, Analog Channel 2, Timestamp, Other, Timestamp (Formatted)
0.0, 187500.0, 187500.0, 187500.0, 187500.0, 187500.0, 187500.0, 187500.0, 187500.0, 93749.98882412778, 93749.98882412778, 93749.98882412778, 93749.98882412778, 17395.87097118747, 93749.98882412778, 93749.98882412778, 93749.98882412778, -0.014, -0.526, -0.014, 192.0, 127.5, 72.0, 119.5, 72.0, 127.5, 72.0, 0.0, 0.0, 0.0, 1.63999927130429E9, 0.0, 2021-12-20 12:21:11.304
2.0, 187500.0, 187500.0, 187500.0, 187500.0, 187500.0, 187500.0, 187500.0, 187500.0, 187500.0, 187500.0, 187500.0, 187500.0, 34749.94418024352, 187500.0, 187500.0, 187500.0, -0.014, -0.526, -0.014, 192.0, 0.0, 0.0, 0.0, 0.0, 0.0, 0.0, 0.0, 0.0, 0.0, 1.639999271312375E9, 0.0, 2021-12-20 12:21:11.312
4.0, 187500.0, 187500.0, 187500.0, 187500.0, 187500.0, 187500.0, 187500.0, 187500.0, 187500.0, 187500.0, 187500.0, 187500.0, 34691.762589426355, 187500.0, 187500.0, 187500.0, -0.014, -0.526, -0.014, 192.0, 0.0, 0.0, 0.0, 0.0, 0.0, 0.0, 0.0, 0.0, 0.0, 1.639999271318197E9, 0.0, 2021-12-20 12:21:11.318
6.0, 187500.0, 187500.0, 187500.0, 187500.0, 187500.0, 187500.0, 187500.0, 187500.0, 187500.0, 187500.0, 187500.0, 187500.0, 34636.889056788576, 187500.0, 187500.0, 187500.0, -0.019, -0.654, -0.02, 192.0, 127.5, 32.0, 115.5, 72.0, 127.5, 24.0, 0.0, 0.0, 0.0, 1.639999271325717E9, 0.0, 2021-12-20 12:21:11.325
8.0, 187500.0, 187500.0, 187500.0, 187500.0, 187500.0, 187500.0, 187500.0, 187500.0, 187500.0, 187500.0, 187500.0, 187500.0, 34621.44400136996, 187500.0, 187500.0, 187500.0, -0.019, -0.654, -0.02, 192.0, 0.0, 0.0, 0.0, 0.0, 0.0, 0.0, 0.0, 0.0, 0.0, 1.639999271333753E9, 0.0, 2021-12-20 12:21:11.333
10.0, 187500.0, 187500.0, 187500.0, 187500.0, 187500.0, 187500.0, 187500.0, 187500.0, 187500.0, 187500.0, 187500.0, 187500.0, 34582.10493112862, 187500.0, 187500.0, 187500.0, -0.019, -0.654, -0.02, 192.0, 0.0, 0.0, 0.0, 0.0, 0.0, 0.0, 0.0, 0.0, 0.0, 1.639999271341734E9, 0.0, 2021-12-20 12:21:11.341
12.0, 187500.0, 187500.0, 187500.0, 187500.0, 187500.0, 187500.0, 187500.0, 187500.0, 187500.0, 187500.0, 187500.0, 187500.0, 34529.04188979172, 187500.0, 187500.0, 187500.0, -0.019, -0.654, -0.02, 192.0, 0.0, 0.0, 0.0, 0.0, 0.0, 0.0, 0.0, 0.0, 0.0, 1.639999271348326E9, 0.0, 2021-12-20 12:21:11.348
14.0, 187500.0, 187500.0, 187500.0, 187500.0, 187500.0, 187500.0, 187500.0, 187500.0, 187500.0, 187500.0, 187500.0, 187500.0, 34469.42978732941, 187500.0, 187500.0, 187500.0, -0.019, -0.654, -0.02, 192.0, 0.0, 0.0, 0.0, 0.0, 0.0, 0.0, 0.0, 0.0, 0.0, 1.639999271355796E9, 0.0, 2021-12-20 12:21:11.355
16.0, 187500.0, 187500.0, 187500.0, 187500.0, 187500.0, 187500.0, 187500.0, 187500.0, 187500.0, 187500.0, 187500.0, 187500.0, 34396.40663819393, 187500.0, 187500.0, 187500.0, -0.027500000000000004, -0.78, -0.024, 192.0, 127.0, 112.0, 113.5, 88.0, 127.5, 16.0, 0.0, 0.0, 0.0, 1.639999271363431E9, 0.0, 2021-12-20 12:21:11.363
18.0, 187500.0, 187500.0, 187500.0, 187500.0, 187500.0, 187500.0, 187500.0, 187500.0, 187500.0, 187500.0, 187500.0, 187500.0, 34317.683794222336, 187500.0, 187500.0, 187500.0, -0.027500000000000004, -0.78, -0.024, 192.0, 0.0, 0.0, 0.0, 0.0, 0.0, 0.0, 0.0, 0.0, 0.0, 1.639999271373914E9, 0.0, 2021-12-20 12:21:11.373
20.0, 187500.0, 187500.0, 187500.0, 187500.0, 187500.0, 187500.0, 187500.0, 187500.0, 187500.0, 187500.0, 187500.0, 187500.0, 34253.914267291344, 187500.0, 187500.0, 187500.0, -0.027500000000000004, -0.78, -0.024, 192.0, 0.0, 0.0, 0.0, 0.0, 0.0, 0.0, 0.0, 0.0, 0.0, 1.63999927138024E9, 0.0, 2021-12-20 12:21:11.380
22.0, 187500.0, 187500.0, 187500.0, 187500.0, 187500.0, 187500.0, 187500.0, 187500.0, 187500.0, 187500.0, 187500.0, 187500.0, 34210.52953130359, 187500.0, 187500.0, 187500.0, -0.027500000000000004, -0.78, -0.024, 192.0, 0.0, 0.0, 0.0, 0.0, 0.0, 0.0, 0.0, 0.0, 0.0, 1.639999271394998E9, 0.0, 2021-12-20 12:21:11.394
24.0, 187500.0, 187500.0, 187500.0, 187500.0, 187500.0, 187500.0, 187500.0, 187500.0, 187500.0, 187500.0, 187500.0, 187500.0, 34191.15056886084, 187500.0, 187500.0, 187500.0, -0.027500000000000004, -0.78, -0.024, 192.0, 0.0, 0.0, 0.0, 0.0, 0.0, 0.0, 0.0, 0.0, 0.0, 1.639999271395007E9, 0.0, 2021-12-20 12:21:11.395
26.0, 187500.0, 187500.0, 187500.0, 187500.0, 187500.0, 187500.0, 187500.0, 187500.0, 187500.0, 187500.0, 187500.0, 187500.0, 34149.3081032405, 187500.0, 187500.0, 187500.0, -0.030750000000000003, -0.876, -0.027, 192.0, 127.0, 120.0, 112.5, 80.0, 127.5, 8.0, 0.0, 0.0, 0.0, 1.639999271408646E9, 0.0, 2021-12-20 12:21:11.408
28.0, 187500.0, 187500.0, 187500.0, 187500.0, 187500.0, 187500.0, 187500.0, 187500.0, 187500.0, 187500.0, 187500.0, 187500.0, 34090.45596008968, 187500.0, 187500.0, 187500.0, -0.030750000000000003, -0.876, -0.027, 192.0, 0.0, 0.0, 0.0, 0.0, 0.0, 0.0, 0.0, 0.0, 0.0, 1.639999271408653E9, 0.0, 2021-12-20 12:21:11.408
30.0, 187500.0, 187500.0, 187500.0, 187500.0, 187500.0, 187500.0, 187500.0, 187500.0, 187500.0, 187500.0, 187500.0, 187500.0, 34004.8264270814, 187500.0, 187500.0, 187500.0, -0.030750000000000003, -0.876, -0.027, 192.0, 0.0, 0.0, 0.0, 0.0, 0.0, 0.0, 0.0, 0.0, 0.0, 1.63999927142501E9, 0.0, 2021-12-20 12:21:11.425
32.0, 187500.0, 187500.0, 187500.0, 187500.0, 187500.0, 187500.0, 187500.0, 187500.0, 187500.0, 187500.0, 187500.0, 187500.0, 33926.77413544347, 187500.0, 187500.0, 187500.0, -0.030750000000000003, -0.876, -0.027, 192.0, 0.0, 0.0, 0.0, 0.0, 0.0, 0.0, 0.0, 0.0, 0.0, 1.639999271430284E9, 0.0, 2021-12-20 12:21:11.430
34.0, 187500.0, 187500.0, 187500.0, 187500.0, 187500.0, 187500.0, 187500.0, 187500.0, 187500.0, 187500.0, 187500.0, 187500.0, 33838.35063437827, 187500.0, 187500.0, 187500.0, -0.030750000000000003, -0.876, -0.027, 192.0, 0.0, 0.0, 0.0, 0.0, 0.0, 0.0, 0.0, 0.0, 0.0, 1.639999271443296E9, 0.0, 2021-12-20 12:21:11.443
36.0, 187500.0, 187500.0, 187500.0, 187500.0, 187500.0, 187500.0, 187500.0, 187500.0, 187500.0, 187500.0, 187500.0, 187500.0, 33746.06028152231, 187500.0, 187500.0, 187500.0, -0.031375, -0.938, -0.0275, 192.0, 127.5, 0.0, 112.0, 96.0, 127.5, 16.0, 0.0, 0.0, 0.0, 1.63999927144662E9, 0.0, 2021-12-20 12:21:11.446
38.0, 187500.0, 187500.0, 187500.0, 187500.0, 187500.0, 187500.0, 187500.0, 187500.0, 187500.0, 187500.0, 187500.0, 187500.0, 33668.38796954012, 187500.0, 187500.0, 187500.0, -0.031375, -0.938, -0.0275, 192.0, 0.0, 0.0, 0.0, 0.0, 0.0, 0.0, 0.0, 0.0, 0.0, 1.639999271458859E9, 0.0, 2021-12-20 12:21:11.458
40.0, 187500.0, 187500.0, 187500.0, 187500.0, 187500.0, 187500.0, 187500.0, 187500.0, 187500.0, 187500.0, 187500.0, 187500.0, 33593.84490178167, 187500.0, 187500.0, 187500.0, -0.031375, -0.938, -0.0275, 192.0, 0.0, 0.0, 0.0, 0.0, 0.0, 0.0, 0.0, 0.0, 0.0, 1.639999271464007E9, 0.0, 2021-12-20 12:21:11.464
42.0, 187500.0, 187500.0, 187500.0, 187500.0, 187500.0, 187500.0, 187500.0, 187500.0, 187500.0, 187500.0, 187500.0, 187500.0, 33534.65748246402, 187500.0, 187500.0, 187500.0, -0.031375, -0.938, -0.0275, 192.0, 0.0, 0.0, 0.0, 0.0, 0.0, 0.0, 0.0, 0.0, 0.0, 1.63999927146883E9, 0.0, 2021-12-20 12:21:11.468
44.0, 187500.0, 187500.0, 187500.0, 187500.0, 187500.0, 187500.0, 187500.0, 187500.0, 187500.0, 187500.0, 187500.0, 187500.0, 33495.07254303367, 187500.0, 187500.0, 187500.0, -0.031375, -0.938, -0.0275, 192.0, 0.0, 0.0, 0.0, 0.0, 0.0, 0.0, 0.0, 0.0, 0.0, 1.639999271475996E9, 0.0, 2021-12-20 12:21:11.475
46.0, 187500.0, 187500.0, 187500.0, 187500.0, 187500.0, 187500.0, 187500.0, 187500.0, 187500.0, 187500.0, 187500.0, 187500.0, 33400.01057386525, 187500.0, 187500.0, 187500.0, -0.031375, -0.938, -0.0275, 192.0, 0.0, 0.0, 0.0, 0.0, 0.0, 0.0, 0.0, 0.0, 0.0, 1.639999271482653E9, 0.0, 2021-12-20 12:21:11.482
48.0, 187500.0, 187500.0, 187500.0, 187500.0, 187500.0, 187500.0, 187500.0, 187500.0, 187500.0, 187500.0, 187500.0, 187500.0, 33307.78727624265, 187500.0, 187500.0, 187500.0, -0.034, -1.018, -0.026000000000000002, 192.0, 127.0, 120.0, 112.0, 24.0, 127.5, 24.0, 0.0, 0.0, 0.0, 1.639999271490738E9, 0.0, 2021-12-20 12:21:11.490
50.0, 187500.0, 187500.0, 187500.0, 187500.0, 187500.0, 187500.0, 187500.0, 187500.0, 187500.0, 187500.0, 187500.0, 187500.0, 33217.53093213212, 187500.0, 187500.0, 187500.0, -0.034, -1.018, -0.026000000000000002, 192.0, 0.0, 0.0, 0.0, 0.0, 0.0, 0.0, 0.0, 0.0, 0.0, 1.639999271498908E9, 0.0, 2021-12-20 12:21:11.498
52.0, 187500.0, 187500.0, 187500.0, 187500.0, 187500.0, 187500.0, 187500.0, 187500.0, 187500.0, 187500.0, 187500.0, 187500.0, 33128.90626536683, 187500.0, 187500.0, 187500.0, -0.034, -1.018, -0.026000000000000002, 192.0, 0.0, 0.0, 0.0, 0.0, 0.0, 0.0, 0.0, 0.0, 0.0, 1.639999271506027E9, 0.0, 2021-12-20 12:21:11.506
54.0, 187500.0, 187500.0, 187500.0, 187500.0, 187500.0, 187500.0, 187500.0, 187500.0, 187500.0, 187500.0, 187500.0, 187500.0, 33046.718901004664, 187500.0, 187500.0, 187500.0, -0.034, -1.018, -0.026000000000000002, 192.0, 0.0, 0.0, 0.0, 0.0, 0.0, 0.0, 0.0, 0.0, 0.0, 1.63999927151577E9, 0.0, 2021-12-20 12:21:11.515
56.0, 187500.0, 187500.0, 187500.0, 187500.0, 187500.0, 187500.0, 187500.0, 187500.0, 187500.0, 187500.0, 187500.0, 187500.0, 32975.99798154807, 187500.0, 187500.0, 187500.0, -0.034, -1.018, -0.026000000000000002, 192.0, 0.0, 0.0, 0.0, 0.0, 0.0, 0.0, 0.0, 0.0, 0.0, 1.639999271521289E9, 0.0, 2021-12-20 12:21:11.521
58.0, 187500.0, 187500.0, 187500.0, 187500.0, 187500.0, 187500.0, 187500.0, 187500.0, 187500.0, 187500.0, 187500.0, 187500.0, 32914.597739529345, 187500.0, 187500.0, 187500.0, -0.03, -1.02, -0.02, 192.0, 127.5, 8.0, 112.0, 16.0, 127.5, 48.0, 0.0, 0.0, 0.0, 1.639999271529235E9, 0.0, 2021-12-20 12:21:11.529
60.0, 187500.0, 187500.0, 187500.0, 187500.0, 187500.0, 187500.0, 187500.0, 187500.0, 187500.0, 187500.0, 187500.0, 187500.0, 32839.94291304862, 187500.0, 187500.0, 187500.0, -0.03, -1.02, -0.02, 192.0, 0.0, 0.0, 0.0, 0.0, 0.0, 0.0, 0.0, 0.0, 0.0, 1.63999927153554E9, 0.0, 2021-12-20 12:21:11.535
62.0, 187500.0, 187500.0, 187500.0, 187500.0, 187500.0, 187500.0, 187500.0, 187500.0, 187500.0, 187500.0, 187500.0, 187500.0, 32738.42128973261, 187500.0, 187500.0, 187500.0, -0.03, -1.02, -0.02, 192.0, 0.0, 0.0, 0.0, 0.0, 0.0, 0.0, 0.0, 0.0, 0.0, 1.639999271550942E9, 0.0, 2021-12-20 12:21:11.550
64.0, 187500.0, 187500.0, 187500.0, 187500.0, 187500.0, 187500.0, 187500.0, 187500.0, 187500.0, 187500.0, 187500.0, 187500.0, 32641.772346707865, 187500.0, 187500.0, 187500.0, -0.03, -1.02, -0.02, 192.0, 0.0, 0.0, 0.0, 0.0, 0.0, 0.0, 0.0, 0.0, 0.0, 1.639999271559656E9, 0.0, 2021-12-20 12:21:11.559
66.0, 187500.0, 187500.0, 187500.0, 187500.0, 187500.0, 187500.0, 187500.0, 187500.0, 187500.0, 187500.0, 187500.0, 187500.0, 32574.58300287521, 187500.0, 187500.0, 187500.0, -0.03, -1.02, -0.02, 192.0, 0.0, 0.0, 0.0, 0.0, 0.0, 0.0, 0.0, 0.0, 0.0, 1.639999271566156E9, 0.0, 2021-12-20 12:21:11.566
68.0, 187500.0, 187500.0, 187500.0, 187500.0, 187500.0, 187500.0, 187500.0, 187500.0, 187500.0, 187500.0, 187500.0, 187500.0, 32494.988440869864, 187500.0, 187500.0, 187500.0, -0.032, -1.032, -0.028, 192.0, 127.5, 0.0, 111.5, 96.0, 127.5, 16.0, 0.0, 0.0, 0.0, 1.639999271573611E9, 0.0, 2021-12-20 12:21:11.573
70.0, 187500.0, 187500.0, 187500.0, 187500.0, 187500.0, 187500.0, 187500.0, 187500.0, 187500.0, 187500.0, 187500.0, 187500.0, 32389.823483207645, 187500.0, 187500.0, 187500.0, -0.032, -1.032, -0.028, 192.0, 0.0, 0.0, 0.0, 0.0, 0.0, 0.0, 0.0, 0.0, 0.0, 1.639999271581584E9, 0.0, 2021-12-20 12:21:11.581
72.0, 187500.0, 187500.0, 187500.0, 187500.0, 187500.0, 187500.0, 187500.0, 187500.0, 187500.0, 187500.0, 187500.0, 187500.0, 32255.62360949798, 187500.0, 187500.0, 187500.0, -0.032, -1.032, -0.028, 192.0, 0.0, 0.0, 0.0, 0.0, 0.0, 0.0, 0.0, 0.0, 0.0, 1.639999271588141E9, 0.0, 2021-12-20 12:21:11.588
74.0, 187500.0, 187500.0, 187500.0, 187500.0, 187500.0, 187500.0, 187500.0, 187500.0, 187500.0, 187500.0, 187500.0, 187500.0, 32104.905796635845, 187500.0, 187500.0, 187500.0, -0.032, -1.032, -0.028, 192.0, 0.0, 0.0, 0.0, 0.0, 0.0, 0.0, 0.0, 0.0, 0.0, 1.639999271596131E9, 0.0, 2021-12-20 12:21:11.596
76.0, 187500.0, 187500.0, 187500.0, 187500.0, 187500.0, 187500.0, 187500.0, 187500.0, 187500.0, 187500.0, 187500.0, 187500.0, 31963.016922833554, 187500.0, 187500.0, 187500.0, -0.032, -1.032, -0.028, 192.0, 0.0, 0.0, 0.0, 0.0, 0.0, 0.0, 0.0, 0.0, 0.0, 1.63999927160383E9, 0.0, 2021-12-20 12:21:11.603
78.0, 187500.0, 187500.0, 187500.0, 187500.0, 187500.0, 187500.0, 187500.0, 187500.0, 187500.0, 187500.0, 187500.0, 187500.0, 31866.435035042174, 187500.0, 187500.0, 187500.0, -0.032, -1.036, -0.036000000000000004, 192.0, 127.5, 0.0, 111.5, 80.0, 127.0, 112.0, 0.0, 0.0, 0.0, 1.639999271612133E9, 0.0, 2021-12-20 12:21:11.612
80.0, 187500.0, 187500.0, 187500.0, 187500.0, 187500.0, 187500.0, 187500.0, 187500.0, 187500.0, 187500.0, 187500.0, 187500.0, 31791.53433937244, 187500.0, 187500.0, 187500.0, -0.032, -1.036, -0.036000000000000004, 192.0, 0.0, 0.0, 0.0, 0.0, 0.0, 0.0, 0.0, 0.0, 0.0, 1.639999271618076E9, 0.0, 2021-12-20 12:21:11.618
82.0, 187500.0, 187500.0, 187500.0, 187500.0, 187500.0, 187500.0, 187500.0, 187500.0, 187500.0, 187500.0, 187500.0, 187500.0, 31666.0739977448, 187500.0, 187500.0, 187500.0, -0.032, -1.036, -0.036000000000000004, 192.0, 0.0, 0.0, 0.0, 0.0, 0.0, 0.0, 0.0, 0.0, 0.0, 1.639999271625855E9, 0.0, 2021-12-20 12:21:11.625
84.0, 187500.0, 187500.0, 187500.0, 187500.0, 187500.0, 187500.0, 187500.0, 187500.0, 187500.0, 187500.0, 187500.0, 187500.0, 31556.706912124984, 187500.0, 187500.0, 187500.0, -0.032, -1.036, -0.036000000000000004, 192.0, 0.0, 0.0, 0.0, 0.0, 0.0, 0.0, 0.0, 0.0, 0.0, 1.63999927163383E9, 0.0, 2021-12-20 12:21:11.633
86.0, 187500.0, 187500.0, 187500.0, 187500.0, 187500.0, 187500.0, 187500.0, 187500.0, 187500.0, 187500.0, 187500.0, 187500.0, 31444.679968914985, 187500.0, 187500.0, 187500.0, -0.032, -1.036, -0.036000000000000004, 192.0, 0.0, 0.0, 0.0, 0.0, 0.0, 0.0, 0.0, 0.0, 0.0, 1.639999271641108E9, 0.0, 2021-12-20 12:21:11.641
88.0, 187500.0, 187500.0, 187500.0, 187500.0, 187500.0, 187500.0, 187500.0, 187500.0, 187500.0, 187500.0, 187500.0, 187500.0, 31348.902743923994, 187500.0, 187500.0, 187500.0, -0.036000000000000004, -1.032, -0.036000000000000004, 192.0, 127.0, 112.0, 111.5, 96.0, 127.0, 112.0, 0.0, 0.0, 0.0, 1.639999271649917E9, 0.0, 2021-12-20 12:21:11.649
90.0, 187500.0, 187500.0, 187500.0, 187500.0, 187500.0, 187500.0, 187500.0, 187500.0, 187500.0, 187500.0, 187500.0, 187500.0, 31227.376309320487, 187500.0, 187500.0, 187500.0, -0.036000000000000004, -1.032, -0.036000000000000004, 192.0, 0.0, 0.0, 0.0, 0.0, 0.0, 0.0, 0.0, 0.0, 0.0, 1.639999271657766E9, 0.0, 2021-12-20 12:21:11.657
92.0, 187500.0, 187500.0, 187500.0, 187500.0, 187500.0, 187500.0, 187500.0, 187500.0, 187500.0, 187500.0, 187500.0, 187500.0, 31102.653575259876, 187500.0, 187500.0, 187500.0, -0.036000000000000004, -1.032, -0.036000000000000004, 192.0, 0.0, 0.0, 0.0, 0.0, 0.0, 0.0, 0.0, 0.0, 0.0, 1.639999271670594E9, 0.0, 2021-12-20 12:21:11.670
94.0, 187500.0, 187500.0, 187500.0, 187500.0, 187500.0, 187500.0, 187500.0, 187500.0, 187500.0, 187500.0, 187500.0, 187500.0, 30974.04163766404, 187500.0, 187500.0, 187500.0, -0.036000000000000004, -1.032, -0.036000000000000004, 192.0, 0.0, 0.0, 0.0, 0.0, 0.0, 0.0, 0.0, 0.0, 0.0, 1.639999271678163E9, 0.0, 2021-12-20 12:21:11.678
96.0, 187500.0, 187500.0, 187500.0, 187500.0, 187500.0, 187500.0, 187500.0, 187500.0, 187500.0, 187500.0, 187500.0, 187500.0, 30837.941865675675, 187500.0, 187500.0, 187500.0, -0.036000000000000004, -1.032, -0.036000000000000004, 192.0, 0.0, 0.0, 0.0, 0.0, 0.0, 0.0, 0.0, 0.0, 0.0, 1.639999271686081E9, 0.0, 2021-12-20 12:21:11.686
98.0, 187500.0, 187500.0, 187500.0, 187500.0, 187500.0, 187500.0, 187500.0, 187500.0, 187500.0, 187500.0, 187500.0, 187500.0, 30692.476712760537, 187500.0, 187500.0, 187500.0, -0.036000000000000004, -1.0350000000000001, -0.035, 192.0, 127.0, 112.0, 111.5, 72.0, 127.0, 120.0, 0.0, 0.0, 0.0, 1.639999271694419E9, 0.0, 2021-12-20 12:21:11.694
100.0, 187500.0, 187500.0, 187500.0, 187500.0, 187500.0, 187500.0, 187500.0, 187500.0, 187500.0, 187500.0, 187500.0, 187500.0, 30542.764728398888, 187500.0, 187500.0, 187500.0, -0.036000000000000004, -1.0350000000000001, -0.035, 192.0, 0.0, 0.0, 0.0, 0.0, 0.0, 0.0, 0.0, 0.0, 0.0, 1.639999271704536E9, 0.0, 2021-12-20 12:21:11.704
102.0, 187500.0, 187500.0, 187500.0, 187500.0, 187500.0, 187500.0, 187500.0, 187500.0, 187500.0, 187500.0, 187500.0, 187500.0, 30428.234389809895, 187500.0, 187500.0, 187500.0, -0.036000000000000004, -1.0350000000000001, -0.035, 192.0, 0.0, 0.0, 0.0, 0.0, 0.0, 0.0, 0.0, 0.0, 0.0, 1.639999271709367E9, 0.0, 2021-12-20 12:21:11.709
104.0, 187500.0, 187500.0, 187500.0, 187500.0, 187500.0, 187500.0, 187500.0, 187500.0, 187500.0, 187500.0, 187500.0, 187500.0, 30333.53004855276, 187500.0, 187500.0, 187500.0, -0.036000000000000004, -1.0350000000000001, -0.035, 192.0, 0.0, 0.0, 0.0, 0.0, 0.0, 0.0, 0.0, 0.0, 0.0, 1.639999271716736E9, 0.0, 2021-12-20 12:21:11.716
106.0, 187500.0, 187500.0, 187500.0, 187500.0, 187500.0, 187500.0, 187500.0, 187500.0, 187500.0, 187500.0, 187500.0, 187500.0, 30257.779986593723, 187500.0, 187500.0, 187500.0, -0.036000000000000004, -1.0350000000000001, -0.035, 192.0, 0.0, 0.0, 0.0, 0.0, 0.0, 0.0, 0.0, 0.0, 0.0, 1.639999271723004E9, 0.0, 2021-12-20 12:21:11.723
108.0, 187500.0, 187500.0, 187500.0, 187500.0, 187500.0, 187500.0, 187500.0, 187500.0, 187500.0, 187500.0, 187500.0, 187500.0, 30238.624541595527, 187500.0, 187500.0, 187500.0, -0.041, -1.0335, -0.0345, 192.0, 127.0, 72.0, 111.5, 96.0, 127.0, 120.0, 0.0, 0.0, 0.0, 1.639999271731065E9, 0.0, 2021-12-20 12:21:11.731
110.0, 187500.0, 187500.0, 187500.0, 187500.0, 187500.0, 187500.0, 187500.0, 187500.0, 187500.0, 187500.0, 187500.0, 187500.0, 30201.386535332986, 187500.0, 187500.0, 187500.0, -0.041, -1.0335, -0.0345, 192.0, 0.0, 0.0, 0.0, 0.0, 0.0, 0.0, 0.0, 0.0, 0.0, 1.63999927173918E9, 0.0, 2021-12-20 12:21:11.739
112.0, 187500.0, 187500.0, 187500.0, 187500.0, 187500.0, 187500.0, 187500.0, 187500.0, 187500.0, 187500.0, 187500.0, 187500.0, 30138.242857246743, 187500.0, 187500.0, 187500.0, -0.041, -1.0335, -0.0345, 192.0, 0.0, 0.0, 0.0, 0.0, 0.0, 0.0, 0.0, 0.0, 0.0, 1.639999271746332E9, 0.0, 2021-12-20 12:21:11.746
114.0, 187500.0, 187500.0, 187500.0, 187500.0, 187500.0, 187500.0, 187500.0, 187500.0, 187500.0, 187500.0, 187500.0, 187500.0, 30041.593914221994, 187500.0, 187500.0, 187500.0, -0.041, -1.0335, -0.0345, 192.0, 0.0, 0.0, 0.0, 0.0, 0.0, 0.0, 0.0, 0.0, 0.0, 1.639999271752946E9, 0.0, 2021-12-20 12:21:11.752
116.0, 187500.0, 187500.0, 187500.0, 187500.0, 187500.0, 187500.0, 187500.0, 187500.0, 187500.0, 187500.0, 187500.0, 187500.0, 29934.909037936814, 187500.0, 187500.0, 187500.0, -0.041, -1.0335, -0.0345, 192.0, 0.0, 0.0, 0.0, 0.0, 0.0, 0.0, 0.0, 0.0, 0.0, 1.639999271761626E9, 0.0, 2021-12-20 12:21:11.761
118.0, 187500.0, 187500.0, 187500.0, 187500.0, 187500.0, 187500.0, 187500.0, 187500.0, 187500.0, 187500.0, 187500.0, 187500.0, 29826.368966861843, 187500.0, 187500.0, 187500.0, -0.0405, -1.03375, -0.037250000000000005, 192.0, 127.0, 96.0, 111.5, 88.0, 127.0, 96.0, 0.0, 0.0, 0.0, 1.639999271769869E9, 0.0, 2021-12-20 12:21:11.769
120.0, 187500.0, 187500.0, 187500.0, 187500.0, 187500.0, 187500.0, 187500.0, 187500.0, 187500.0, 187500.0, 187500.0, 187500.0, 29712.799753284427, 187500.0, 187500.0, 187500.0, -0.0405, -1.03375, -0.037250000000000005, 192.0, 0.0, 0.0, 0.0, 0.0, 0.0, 0.0, 0.0, 0.0, 0.0, 1.63999927177563E9, 0.0, 2021-12-20 12:21:11.775
122.0, 187500.0, 187500.0, 187500.0, 187500.0, 187500.0, 187500.0, 187500.0, 187500.0, 187500.0, 187500.0, 187500.0, 187500.0, 29613.602711391773, 187500.0, 187500.0, 187500.0, -0.0405, -1.03375, -0.037250000000000005, 192.0, 0.0, 0.0, 0.0, 0.0, 0.0, 0.0, 0.0, 0.0, 0.0, 1.639999271782594E9, 0.0, 2021-12-20 12:21:11.782
124.0, 187500.0, 187500.0, 187500.0, 187500.0, 187500.0, 187500.0, 187500.0, 187500.0, 187500.0, 187500.0, 187500.0, 187500.0, 29551.353103083744, 187500.0, 187500.0, 187500.0, -0.0405, -1.03375, -0.037250000000000005, 192.0, 0.0, 0.0, 0.0, 0.0, 0.0, 0.0, 0.0, 0.0, 0.0, 1.639999271799827E9, 0.0, 2021-12-20 12:21:11.799
126.0, 187500.0, 187500.0, 187500.0, 187500.0, 187500.0, 187500.0, 187500.0, 187500.0, 187500.0, 187500.0, 187500.0, 187500.0, 29460.15798570609, 187500.0, 187500.0, 187500.0, -0.0405, -1.03375, -0.037250000000000005, 192.0, 0.0, 0.0, 0.0, 0.0, 0.0, 0.0, 0.0, 0.0, 0.0, 1.639999271805253E9, 0.0, 2021-12-20 12:21:11.805
128.0, 187500.0, 187500.0, 187500.0, 187500.0, 187500.0, 187500.0, 187500.0, 187500.0, 187500.0, 187500.0, 187500.0, 187500.0, 29384.542034213788, 187500.0, 187500.0, 187500.0, -0.04125, -1.033875, -0.040625, 192.0, 127.0, 88.0, 111.5, 88.0, 127.0, 80.0, 0.0, 0.0, 0.0, 1.639999271813231E9, 0.0, 2021-12-20 12:21:11.813
130.0, 187500.0, 187500.0, 187500.0, 187500.0, 187500.0, 187500.0, 187500.0, 187500.0, 187500.0, 187500.0, 187500.0, 187500.0, 29303.695774518943, 187500.0, 187500.0, 187500.0, -0.04125, -1.033875, -0.040625, 192.0, 0.0, 0.0, 0.0, 0.0, 0.0, 0.0, 0.0, 0.0, 0.0, 1.639999271821293E9, 0.0, 2021-12-20 12:21:11.821
132.0, 187500.0, 187500.0, 187500.0, 187500.0, 187500.0, 187500.0, 187500.0, 187500.0, 187500.0, 187500.0, 187500.0, 187500.0, 29212.835933308117, 187500.0, 187500.0, 187500.0, -0.04125, -1.033875, -0.040625, 192.0, 0.0, 0.0, 0.0, 0.0, 0.0, 0.0, 0.0, 0.0, 0.0, 1.639999271828634E9, 0.0, 2021-12-20 12:21:11.828
134.0, 187500.0, 187500.0, 187500.0, 187500.0, 187500.0, 187500.0, 187500.0, 187500.0, 187500.0, 187500.0, 187500.0, 187500.0, 29112.700118148343, 187500.0, 187500.0, 187500.0, -0.04125, -1.033875, -0.040625, 192.0, 0.0, 0.0, 0.0, 0.0, 0.0, 0.0, 0.0, 0.0, 0.0, 1.639999271836722E9, 0.0, 2021-12-20 12:21:11.836
136.0, 187500.0, 187500.0, 187500.0, 187500.0, 187500.0, 187500.0, 187500.0, 187500.0, 187500.0, 187500.0, 187500.0, 187500.0, 28976.577994415522, 187500.0, 187500.0, 187500.0, -0.04125, -1.033875, -0.040625, 192.0, 0.0, 0.0, 0.0, 0.0, 0.0, 0.0, 0.0, 0.0, 0.0, 1.63999927184386E9, 0.0, 2021-12-20 12:21:11.843
138.0, 187500.0, 187500.0, 187500.0, 187500.0, 187500.0, 187500.0, 187500.0, 187500.0, 187500.0, 187500.0, 187500.0, 187500.0, 28873.603507709922, 187500.0, 187500.0, 187500.0, -0.041625, -1.0339375, -0.0393125, 192.0, 127.0, 88.0, 111.5, 88.0, 127.0, 104.0, 0.0, 0.0, 0.0, 1.639999271850934E9, 0.0, 2021-12-20 12:21:11.850
140.0, 187500.0, 187500.0, 187500.0, 187500.0, 187500.0, 187500.0, 187500.0, 187500.0, 187500.0, 187500.0, 187500.0, 187500.0, 28748.053759104463, 187500.0, 187500.0, 187500.0, -0.041625, -1.0339375, -0.0393125, 192.0, 0.0, 0.0, 0.0, 0.0, 0.0, 0.0, 0.0, 0.0, 0.0, 1.639999271858236E9, 0.0, 2021-12-20 12:21:11.858
142.0, 187500.0, 187500.0, 187500.0, 187500.0, 187500.0, 187500.0, 187500.0, 187500.0, 187500.0, 187500.0, 187500.0, 187500.0, 28624.24744656652, 187500.0, 187500.0, 187500.0, -0.041625, -1.0339375, -0.0393125, 192.0, 0.0, 0.0, 0.0, 0.0, 0.0, 0.0, 0.0, 0.0, 0.0, 1.639999271866866E9, 0.0, 2021-12-20 12:21:11.866
144.0, 187500.0, 187500.0, 187500.0, 187500.0, 187500.0, 187500.0, 187500.0, 187500.0, 187500.0, 187500.0, 187500.0, 187500.0, 28523.865762217734, 187500.0, 187500.0, 187500.0, -0.041625, -1.0339375, -0.0393125, 192.0, 0.0, 0.0, 0.0, 0.0, 0.0, 0.0, 0.0, 0.0, 0.0, 1.639999271874207E9, 0.0, 2021-12-20 12:21:11.874
146.0, 187500.0, 187500.0, 187500.0, 187500.0, 187500.0, 187500.0, 187500.0, 187500.0, 187500.0, 187500.0, 187500.0, 187500.0, 28404.730964270948, 187500.0, 187500.0, 187500.0, -0.041625, -1.0339375, -0.0393125, 192.0, 0.0, 0.0, 0.0, 0.0, 0.0, 0.0, 0.0, 0.0, 0.0, 1.639999271880879E9, 0.0, 2021-12-20 12:21:11.880
148.0, 187500.0, 187500.0, 187500.0, 187500.0, 187500.0, 187500.0, 187500.0, 187500.0, 187500.0, 187500.0, 187500.0, 187500.0, 28279.672954043504, 187500.0, 187500.0, 187500.0, -0.041625, -1.0339375, -0.0393125, 192.0, 0.0, 0.0, 0.0, 0.0, 0.0, 0.0, 0.0, 0.0, 0.0, 1.639999271888899E9, 0.0, 2021-12-20 12:21:11.888
150.0, 187500.0, 187500.0, 187500.0, 187500.0, 187500.0, 187500.0, 187500.0, 187500.0, 187500.0, 187500.0, 187500.0, 187500.0, 28166.059036977178, 187500.0, 187500.0, 187500.0, -0.04, -1.036, -0.036000000000000004, 192.0, 127.0, 96.0, 111.5, 80.0, 127.0, 112.0, 0.0, 0.0, 0.0, 1.639999271896765E9, 0.0, 2021-12-20 12:21:11.896
152.0, 187500.0, 187500.0, 187500.0, 187500.0, 187500.0, 187500.0, 187500.0, 187500.0, 187500.0, 187500.0, 187500.0, 187500.0, 28058.23422172478, 187500.0, 187500.0, 187500.0, -0.04, -1.036, -0.036000000000000004, 192.0, 0.0, 0.0, 0.0, 0.0, 0.0, 0.0, 0.0, 0.0, 0.0, 1.639999271904535E9, 0.0, 2021-12-20 12:21:11.904
154.0, 187500.0, 187500.0, 187500.0, 187500.0, 187500.0, 187500.0, 187500.0, 187500.0, 187500.0, 187500.0, 187500.0, 187500.0, 27960.065360077067, 187500.0, 187500.0, 187500.0, -0.04, -1.036, -0.036000000000000004, 192.0, 0.0, 0.0, 0.0, 0.0, 0.0, 0.0, 0.0, 0.0, 0.0, 1.639999271918643E9, 0.0, 2021-12-20 12:21:11.918
156.0, 187500.0, 187500.0, 187500.0, 187500.0, 187500.0, 187500.0, 187500.0, 187500.0, 187500.0, 187500.0, 187500.0, 187500.0, 27875.106379402445, 187500.0, 187500.0, 187500.0, -0.04, -1.036, -0.036000000000000004, 192.0, 0.0, 0.0, 0.0, 0.0, 0.0, 0.0, 0.0, 0.0, 0.0, 1.639999271925151E9, 0.0, 2021-12-20 12:21:11.925
158.0, 187500.0, 187500.0, 187500.0, 187500.0, 187500.0, 187500.0, 187500.0, 187500.0, 187500.0, 187500.0, 187500.0, 187500.0, 27771.997782230115, 187500.0, 187500.0, 187500.0, -0.04, -1.036, -0.036000000000000004, 192.0, 0.0, 0.0, 0.0, 0.0, 0.0, 0.0, 0.0, 0.0, 0.0, 1.639999271933825E9, 0.0, 2021-12-20 12:21:11.933
160.0, 187500.0, 187500.0, 187500.0, 187500.0, 187500.0, 187500.0, 187500.0, 187500.0, 187500.0, 187500.0, 187500.0, 187500.0, 27671.660801370243, 187500.0, 187500.0, 187500.0, -0.048, -1.036, -0.03, 192.0, 127.0, 64.0, 111.5, 80.0, 127.5, 8.0, 0.0, 0.0, 0.0, 1.639999271941281E9, 0.0, 2021-12-20 12:21:11.941
162.0, 187500.0, 187500.0, 187500.0, 187500.0, 187500.0, 187500.0, 187500.0, 187500.0, 187500.0, 187500.0, 187500.0, 187500.0, 27544.389968441723, 187500.0, 187500.0, 187500.0, -0.048, -1.036, -0.03, 192.0, 0.0, 0.0, 0.0, 0.0, 0.0, 0.0, 0.0, 0.0, 0.0, 1.63999927194835E9, 0.0, 2021-12-20 12:21:11.948
164.0, 187500.0, 187500.0, 187500.0, 187500.0, 187500.0, 187500.0, 187500.0, 187500.0, 187500.0, 187500.0, 187500.0, 187500.0, 27399.148332971137, 187500.0, 187500.0, 187500.0, -0.048, -1.036, -0.03, 192.0, 0.0, 0.0, 0.0, 0.0, 0.0, 0.0, 0.0, 0.0, 0.0, 1.639999271955697E9, 0.0, 2021-12-20 12:21:11.955
166.0, 187500.0, 187500.0, 187500.0, 187500.0, 187500.0, 187500.0, 187500.0, 187500.0, 187500.0, 187500.0, 187500.0, 187500.0, 27225.028243664296, 187500.0, 187500.0, 187500.0, -0.048, -1.036, -0.03, 192.0, 0.0, 0.0, 0.0, 0.0, 0.0, 0.0, 0.0, 0.0, 0.0, 1.639999271964603E9, 0.0, 2021-12-20 12:21:11.964
168.0, 187500.0, 187500.0, 187500.0, 187500.0, 187500.0, 187500.0, 187500.0, 187500.0, 187500.0, 187500.0, 187500.0, 187500.0, 27064.319201030637, 187500.0, 187500.0, 187500.0, -0.048, -1.036, -0.03, 192.0, 0.0, 0.0, 0.0, 0.0, 0.0, 0.0, 0.0, 0.0, 0.0, 1.639999271971737E9, 0.0, 2021-12-20 12:21:11.971
170.0, 187500.0, 187500.0, 187500.0, 187500.0, 187500.0, 187500.0, 187500.0, 187500.0, 187500.0, 187500.0, 187500.0, 187500.0, 26920.485725460738, 187500.0, 187500.0, 187500.0, -0.054, -1.03, -0.02, 192.0, 127.0, 40.0, 111.5, 104.0, 127.5, 48.0, 0.0, 0.0, 0.0, 1.639999271977906E9, 0.0, 2021-12-20 12:21:11.977
172.0, 187500.0, 187500.0, 187500.0, 187500.0, 187500.0, 187500.0, 187500.0, 187500.0, 187500.0, 187500.0, 187500.0, 187500.0, 26812.370337530418, 187500.0, 187500.0, 187500.0, -0.054, -1.03, -0.02, 192.0, 0.0, 0.0, 0.0, 0.0, 0.0, 0.0, 0.0, 0.0, 0.0, 1.639999271985306E9, 0.0, 2021-12-20 12:21:11.985
174.0, 187500.0, 187500.0, 187500.0, 187500.0, 187500.0, 187500.0, 187500.0, 187500.0, 187500.0, 187500.0, 187500.0, 187500.0, 26721.33168236395, 187500.0, 187500.0, 187500.0, -0.054, -1.03, -0.02, 192.0, 0.0, 0.0, 0.0, 0.0, 0.0, 0.0, 0.0, 0.0, 0.0, 1.639999271993341E9, 0.0, 2021-12-20 12:21:11.993
176.0, 187500.0, 187500.0, 187500.0, 187500.0, 187500.0, 187500.0, 187500.0, 187500.0, 187500.0, 187500.0, 187500.0, 187500.0, 26597.614776803828, 187500.0, 187500.0, 187500.0, -0.054, -1.03, -0.02, 192.0, 0.0, 0.0, 0.0, 0.0, 0.0, 0.0, 0.0, 0.0, 0.0, 1.639999272001021E9, 0.0, 2021-12-20 12:21:12.001
178.0, 187500.0, 187500.0, 187500.0, 187500.0, 187500.0, 187500.0, 187500.0, 187500.0, 187500.0, 187500.0, 187500.0, 187500.0, 26462.230260638033, 187500.0, 187500.0, 187500.0, -0.054, -1.03, -0.02, 192.0, 0.0, 0.0, 0.0, 0.0, 0.0, 0.0, 0.0, 0.0, 0.0, 1.639999272010542E9, 0.0, 2021-12-20 12:21:12.010
180.0, 187500.0, 187500.0, 187500.0, 187500.0, 187500.0, 187500.0, 187500.0, 187500.0, 187500.0, 187500.0, 187500.0, 187500.0, 26327.650407272627, 187500.0, 187500.0, 187500.0, -0.066, -1.024, -0.002, 192.0, 126.5, 120.0, 112.0, 0.0, 127.5, 120.0, 0.0, 0.0, 0.0, 1.639999272016044E9, 0.0, 2021-12-20 12:21:12.016
182.0, 187500.0, 187500.0, 187500.0, 187500.0, 187500.0, 187500.0, 187500.0, 187500.0, 187500.0, 187500.0, 187500.0, 187500.0, 26192.355298084654, 187500.0, 187500.0, 187500.0, -0.066, -1.024, -0.002, 192.0, 0.0, 0.0, 0.0, 0.0, 0.0, 0.0, 0.0, 0.0, 0.0, 1.639999272024185E9, 0.0, 2021-12-20 12:21:12.024
184.0, 187500.0, 187500.0, 187500.0, 187500.0, 187500.0, 187500.0, 187500.0, 187500.0, 187500.0, 187500.0, 187500.0, 187500.0, 26067.92313670196, 187500.0, 187500.0, 187500.0, -0.066, -1.024, -0.002, 192.0, 0.0, 0.0, 0.0, 0.0, 0.0, 0.0, 0.0, 0.0, 0.0, 1.639999272030517E9, 0.0, 2021-12-20 12:21:12.030
186.0, 187500.0, 187500.0, 187500.0, 187500.0, 187500.0, 187500.0, 187500.0, 187500.0, 187500.0, 187500.0, 187500.0, 187500.0, 25897.826361397074, 187500.0, 187500.0, 187500.0, -0.066, -1.024, -0.002, 192.0, 0.0, 0.0, 0.0, 0.0, 0.0, 0.0, 0.0, 0.0, 0.0, 1.63999927204647E9, 0.0, 2021-12-20 12:21:12.046
188.0, 187500.0, 187500.0, 187500.0, 187500.0, 187500.0, 187500.0, 187500.0, 187500.0, 187500.0, 187500.0, 187500.0, 187500.0, 25708.462382371712, 187500.0, 187500.0, 187500.0, -0.066, -1.024, -0.002, 192.0, 0.0, 0.0, 0.0, 0.0, 0.0, 0.0, 0.0, 0.0, 0.0, 1.639999272053713E9, 0.0, 2021-12-20 12:21:12.053
190.0, 187500.0, 187500.0, 187500.0, 187500.0, 187500.0, 187500.0, 187500.0, 187500.0, 187500.0, 187500.0, 187500.0, 187500.0, 25513.95750212163, 187500.0, 187500.0, 187500.0, -0.08600000000000001, -1.028, -0.002, 192.0, 126.5, 40.0, 111.5, 112.0, 127.5, 120.0, 0.0, 0.0, 0.0, 1.639999272060363E9, 0.0, 2021-12-20 12:21:12.060
192.0, 187500.0, 187500.0, 187500.0, 187500.0, 187500.0, 187500.0, 187500.0, 187500.0, 187500.0, 187500.0, 187500.0, 187500.0, 25328.661540587134, 187500.0, 187500.0, 187500.0, -0.08600000000000001, -1.028, -0.002, 192.0, 0.0, 0.0, 0.0, 0.0, 0.0, 0.0, 0.0, 0.0, 0.0, 1.639999272069114E9, 0.0, 2021-12-20 12:21:12.069
194.0, 187500.0, 187500.0, 187500.0, 187500.0, 187500.0, 187500.0, 187500.0, 187500.0, 187500.0, 187500.0, 187500.0, 187500.0, 25135.49776500437, 187500.0, 187500.0, 187500.0, -0.08600000000000001, -1.028, -0.002, 192.0, 0.0, 0.0, 0.0, 0.0, 0.0, 0.0, 0.0, 0.0, 0.0, 1.639999272078615E9, 0.0, 2021-12-20 12:21:12.078
196.0, 187500.0, 187500.0, 187500.0, 187500.0, 187500.0, 187500.0, 187500.0, 187500.0, 187500.0, 187500.0, 187500.0, 187500.0, 24950.17945172542, 187500.0, 187500.0, 187500.0, -0.08600000000000001, -1.028, -0.002, 192.0, 0.0, 0.0, 0.0, 0.0, 0.0, 0.0, 0.0, 0.0, 0.0, 1.639999272083082E9, 0.0, 2021-12-20 12:21:12.083
198.0, 187500.0, 187500.0, 187500.0, 187500.0, 187500.0, 187500.0, 187500.0, 187500.0, 187500.0, 187500.0, 187500.0, 187500.0, 24778.80862698658, 187500.0, 187500.0, 187500.0, -0.08600000000000001, -1.028, -0.002, 192.0, 0.0, 0.0, 0.0, 0.0, 0.0, 0.0, 0.0, 0.0, 0.0, 1.639999272090942E9, 0.0, 2021-12-20 12:21:12.090
200.0, 187500.0, 187500.0, 187500.0, 187500.0, 187500.0, 187500.0, 187500.0, 187500.0, 187500.0, 187500.0, 187500.0, 187500.0, 24597.82655213196, 187500.0, 187500.0, 187500.0, -0.087, -1.0310000000000001, -0.004, 192.0, 126.5, 32.0, 111.5, 88.0, 127.5, 104.0, 0.0, 0.0, 0.0, 1.639999272100139E9, 0.0, 2021-12-20 12:21:12.100
202.0, 187500.0, 187500.0, 187500.0, 187500.0, 187500.0, 187500.0, 187500.0, 187500.0, 187500.0, 187500.0, 187500.0, 187500.0, 24423.013558747003, 187500.0, 187500.0, 187500.0, -0.087, -1.0310000000000001, -0.004, 192.0, 0.0, 0.0, 0.0, 0.0, 0.0, 0.0, 0.0, 0.0, 0.0, 1.639999272109367E9, 0.0, 2021-12-20 12:21:12.109
204.0, 187500.0, 187500.0, 187500.0, 187500.0, 187500.0, 187500.0, 187500.0, 187500.0, 187500.0, 187500.0, 187500.0, 187500.0, 24246.971219417002, 187500.0, 187500.0, 187500.0, -0.087, -1.0310000000000001, -0.004, 192.0, 0.0, 0.0, 0.0, 0.0, 0.0, 0.0, 0.0, 0.0, 0.0, 1.639999272114351E9, 0.0, 2021-12-20 12:21:12.114
206.0, 187500.0, 187500.0, 187500.0, 187500.0, 187500.0, 187500.0, 187500.0, 187500.0, 187500.0, 187500.0, 187500.0, 187500.0, 24070.705362642453, 187500.0, 187500.0, 187500.0, -0.087, -1.0310000000000001, -0.004, 192.0, 0.0, 0.0, 0.0, 0.0, 0.0, 0.0, 0.0, 0.0, 0.0, 1.639999272120739E9, 0.0, 2021-12-20 12:21:12.120
208.0, 187500.0, 187500.0, 187500.0, 187500.0, 187500.0, 187500.0, 187500.0, 187500.0, 187500.0, 187500.0, 187500.0, 187500.0, 23920.144011991502, 187500.0, 187500.0, 187500.0, -0.087, -1.0310000000000001, -0.004, 192.0, 0.0, 0.0, 0.0, 0.0, 0.0, 0.0, 0.0, 0.0, 0.0, 1.639999272128611E9, 0.0, 2021-12-20 12:21:12.128
210.0, 187500.0, 187500.0, 187500.0, 187500.0, 187500.0, 187500.0, 187500.0, 187500.0, 187500.0, 187500.0, 187500.0, 187500.0, 23741.665332515877, 187500.0, 187500.0, 187500.0, -0.08249999999999999, -1.0305, -0.001, 192.0, 126.5, 72.0, 111.5, 104.0, 0.0, 8.0, 0.0, 0.0, 0.0, 1.639999272136065E9, 0.0, 2021-12-20 12:21:12.136
212.0, 187500.0, 187500.0, 187500.0, 187500.0, 187500.0, 187500.0, 187500.0, 187500.0, 187500.0, 187500.0, 187500.0, 187500.0, 23545.729940620655, 187500.0, 187500.0, 187500.0, -0.08249999999999999, -1.0305, -0.001, 192.0, 0.0, 0.0, 0.0, 0.0, 0.0, 0.0, 0.0, 0.0, 0.0, 1.639999272146039E9, 0.0, 2021-12-20 12:21:12.146
214.0, 187500.0, 187500.0, 187500.0, 187500.0, 187500.0, 187500.0, 187500.0, 187500.0, 187500.0, 187500.0, 187500.0, 187500.0, 23351.962667937598, 187500.0, 187500.0, 187500.0, -0.08249999999999999, -1.0305, -0.001, 192.0, 0.0, 0.0, 0.0, 0.0, 0.0, 0.0, 0.0, 0.0, 0.0, 1.639999272151185E9, 0.0, 2021-12-20 12:21:12.151
216.0, 187500.0, 187500.0, 187500.0, 187500.0, 187500.0, 187500.0, 187500.0, 187500.0, 187500.0, 187500.0, 187500.0, 187500.0, 23142.750339835926, 187500.0, 187500.0, 187500.0, -0.08249999999999999, -1.0305, -0.001, 192.0, 0.0, 0.0, 0.0, 0.0, 0.0, 0.0, 0.0, 0.0, 0.0, 1.639999272166001E9, 0.0, 2021-12-20 12:21:12.166
218.0, 187500.0, 187500.0, 187500.0, 187500.0, 187500.0, 187500.0, 187500.0, 187500.0, 187500.0, 187500.0, 187500.0, 187500.0, 22962.818796970703, 187500.0, 187500.0, 187500.0, -0.08249999999999999, -1.0305, -0.001, 192.0, 0.0, 0.0, 0.0, 0.0, 0.0, 0.0, 0.0, 0.0, 0.0, 1.639999272173149E9, 0.0, 2021-12-20 12:21:12.173
220.0, 187500.0, 187500.0, 187500.0, 187500.0, 187500.0, 187500.0, 187500.0, 187500.0, 187500.0, 187500.0, 187500.0, 187500.0, 22837.626676276526, 187500.0, 187500.0, 187500.0, -0.07024999999999999, -1.02925, -0.0055, 192.0, 127.0, 24.0, 111.5, 112.0, 127.5, 88.0, 0.0, 0.0, 0.0, 1.639999272181858E9, 0.0, 2021-12-20 12:21:12.181
222.0, 187500.0, 187500.0, 187500.0, 187500.0, 187500.0, 187500.0, 187500.0, 187500.0, 187500.0, 187500.0, 187500.0, 187500.0, 22751.304239190133, 187500.0, 187500.0, 187500.0, -0.07024999999999999, -1.02925, -0.0055, 192.0, 0.0, 0.0, 0.0, 0.0, 0.0, 0.0, 0.0, 0.0, 0.0, 1.639999272188055E9, 0.0, 2021-12-20 12:21:12.188
224.0, 187500.0, 187500.0, 187500.0, 187500.0, 187500.0, 187500.0, 187500.0, 187500.0, 187500.0, 187500.0, 187500.0, 187500.0, 22682.617328478973, 187500.0, 187500.0, 187500.0, -0.07024999999999999, -1.02925, -0.0055, 192.0, 0.0, 0.0, 0.0, 0.0, 0.0, 0.0, 0.0, 0.0, 0.0, 1.639999272196927E9, 0.0, 2021-12-20 12:21:12.196
226.0, 187500.0, 187500.0, 187500.0, 187500.0, 187500.0, 187500.0, 187500.0, 187500.0, 187500.0, 187500.0, 187500.0, 187500.0, 22593.99266171368, 187500.0, 187500.0, 187500.0, -0.07024999999999999, -1.02925, -0.0055, 192.0, 0.0, 0.0, 0.0, 0.0, 0.0, 0.0, 0.0, 0.0, 0.0, 1.639999272210542E9, 0.0, 2021-12-20 12:21:12.210
228.0, 187500.0, 187500.0, 187500.0, 187500.0, 187500.0, 187500.0, 187500.0, 187500.0, 187500.0, 187500.0, 187500.0, 187500.0, 22478.322384157465, 187500.0, 187500.0, 187500.0, -0.07024999999999999, -1.02925, -0.0055, 192.0, 0.0, 0.0, 0.0, 0.0, 0.0, 0.0, 0.0, 0.0, 0.0, 1.639999272213807E9, 0.0, 2021-12-20 12:21:12.213
230.0, 187500.0, 187500.0, 187500.0, 187500.0, 187500.0, 187500.0, 187500.0, 187500.0, 187500.0, 187500.0, 187500.0, 187500.0, 22353.823167541406, 187500.0, 187500.0, 187500.0, -0.057124999999999995, -1.032625, -0.00475, 192.0, 127.0, 80.0, 111.5, 80.0, 127.5, 112.0, 0.0, 0.0, 0.0, 1.639999272217609E9, 0.0, 2021-12-20 12:21:12.217
232.0, 187500.0, 187500.0, 187500.0, 187500.0, 187500.0, 187500.0, 187500.0, 187500.0, 187500.0, 187500.0, 187500.0, 187500.0, 22261.3540007298, 187500.0, 187500.0, 187500.0, -0.057124999999999995, -1.032625, -0.00475, 192.0, 0.0, 0.0, 0.0, 0.0, 0.0, 0.0, 0.0, 0.0, 0.0, 1.639999272225181E9, 0.0, 2021-12-20 12:21:12.225
234.0, 187500.0, 187500.0, 187500.0, 187500.0, 187500.0, 187500.0, 187500.0, 187500.0, 187500.0, 187500.0, 187500.0, 187500.0, 22193.359994096758, 187500.0, 187500.0, 187500.0, -0.057124999999999995, -1.032625, -0.00475, 192.0, 0.0, 0.0, 0.0, 0.0, 0.0, 0.0, 0.0, 0.0, 0.0, 1.639999272234739E9, 0.0, 2021-12-20 12:21:12.234
236.0, 187500.0, 187500.0, 187500.0, 187500.0, 187500.0, 187500.0, 187500.0, 187500.0, 187500.0, 187500.0, 187500.0, 187500.0, 22112.267865212903, 187500.0, 187500.0, 187500.0, -0.057124999999999995, -1.032625, -0.00475, 192.0, 0.0, 0.0, 0.0, 0.0, 0.0, 0.0, 0.0, 0.0, 0.0, 1.639999272242302E9, 0.0, 2021-12-20 12:21:12.242
238.0, 187500.0, 187500.0, 187500.0, 187500.0, 187500.0, 187500.0, 187500.0, 187500.0, 187500.0, 187500.0, 187500.0, 187500.0, 22039.78115794434, 187500.0, 187500.0, 187500.0, -0.057124999999999995, -1.032625, -0.00475, 192.0, 0.0, 0.0, 0.0, 0.0, 0.0, 0.0, 0.0, 0.0, 0.0, 1.63999927224854E9, 0.0, 2021-12-20 12:21:12.248
240.0, 187500.0, 187500.0, 187500.0, 187500.0, 187500.0, 187500.0, 187500.0, 187500.0, 187500.0, 187500.0, 187500.0, 187500.0, 21950.932973734496, 187500.0, 187500.0, 187500.0, -0.0525625, -1.0343125, -0.003375, 192.0, 127.0, 64.0, 111.5, 80.0, 127.5, 120.0, 0.0, 0.0, 0.0, 1.639999272255727E9, 0.0, 2021-12-20 12:21:12.255
242.0, 187500.0, 187500.0, 187500.0, 187500.0, 187500.0, 187500.0, 187500.0, 187500.0, 187500.0, 187500.0, 187500.0, 187500.0, 21859.42493193447, 187500.0, 187500.0, 187500.0, -0.0525625, -1.0343125, -0.003375, 192.0, 0.0, 0.0, 0.0, 0.0, 0.0, 0.0, 0.0, 0.0, 0.0, 1.639999272263826E9, 0.0, 2021-12-20 12:21:12.263
244.0, 187500.0, 187500.0, 187500.0, 187500.0, 187500.0, 187500.0, 187500.0, 187500.0, 187500.0, 187500.0, 187500.0, 187500.0, 21792.235588101816, 187500.0, 187500.0, 187500.0, -0.0525625, -1.0343125, -0.003375, 192.0, 0.0, 0.0, 0.0, 0.0, 0.0, 0.0, 0.0, 0.0, 0.0, 1.639999272271668E9, 0.0, 2021-12-20 12:21:12.271
246.0, 187500.0, 187500.0, 187500.0, 187500.0, 187500.0, 187500.0, 187500.0, 187500.0, 187500.0, 187500.0, 187500.0, 187500.0, 21752.67300041592, 187500.0, 187500.0, 187500.0, -0.0525625, -1.0343125, -0.003375, 192.0, 0.0, 0.0, 0.0, 0.0, 0.0, 0.0, 0.0, 0.0, 0.0, 1.639999272278117E9, 0.0, 2021-12-20 12:21:12.278
248.0, 187500.0, 187500.0, 187500.0, 187500.0, 187500.0, 187500.0, 187500.0, 187500.0, 187500.0, 187500.0, 187500.0, 187500.0, 21723.079290757098, 187500.0, 187500.0, 187500.0, -0.0525625, -1.0343125, -0.003375, 192.0, 0.0, 0.0, 0.0, 0.0, 0.0, 0.0, 0.0, 0.0, 0.0, 1.639999272293391E9, 0.0, 2021-12-20 12:21:12.293
250.0, 187500.0, 187500.0, 187500.0, 187500.0, 187500.0, 187500.0, 187500.0, 187500.0, 187500.0, 187500.0, 187500.0, 187500.0, 21659.19800510383, 187500.0, 187500.0, 187500.0, -0.0525625, -1.0343125, -0.003375, 192.0, 0.0, 0.0, 0.0, 0.0, 0.0, 0.0, 0.0, 0.0, 0.0, 1.639999272300784E9, 0.0, 2021-12-20 12:21:12.300
252.0, 187500.0, 187500.0, 187500.0, 187500.0, 187500.0, 187500.0, 187500.0, 187500.0, 187500.0, 187500.0, 187500.0, 187500.0, 21634.812251903088, 187500.0, 187500.0, 187500.0, -0.058, -1.032, 0.01, 192.0, 127.0, 24.0, 111.5, 96.0, 0.0, 40.0, 0.0, 0.0, 0.0, 1.639999272308775E9, 0.0, 2021-12-20 12:21:12.308
254.0, 187500.0, 187500.0, 187500.0, 187500.0, 187500.0, 187500.0, 187500.0, 187500.0, 187500.0, 187500.0, 187500.0, 187500.0, 21600.12234450845, 187500.0, 187500.0, 187500.0, -0.058, -1.032, 0.01, 192.0, 0.0, 0.0, 0.0, 0.0, 0.0, 0.0, 0.0, 0.0, 0.0, 1.639999272316228E9, 0.0, 2021-12-20 12:21:12.316
0.0, 187500.0, 187500.0, 187500.0, 187500.0, 187500.0, 187500.0, 187500.0, 187500.0, 187500.0, 187500.0, 187500.0, 187500.0, 21595.47318166175, 187500.0, 187500.0, 187500.0, -0.058, -1.032, 0.01, 192.0, 0.0, 0.0, 0.0, 0.0, 0.0, 0.0, 0.0, 0.0, 0.0, 1.639999272323032E9, 0.0, 2021-12-20 12:21:12.323
2.0, 187500.0, 187500.0, 187500.0, 187500.0, 187500.0, 187500.0, 187500.0, 187500.0, 187500.0, 187500.0, 187500.0, 187500.0, 21563.84546325749, 187500.0, 187500.0, 187500.0, -0.058, -1.032, 0.01, 192.0, 0.0, 0.0, 0.0, 0.0, 0.0, 0.0, 0.0, 0.0, 0.0, 1.639999272331741E9, 0.0, 2021-12-20 12:21:12.331
4.0, 187500.0, 187500.0, 187500.0, 187500.0, 187500.0, 187500.0, 187500.0, 187500.0, 187500.0, 187500.0, 187500.0, 187500.0, 21460.066313751497, 187500.0, 187500.0, 187500.0, -0.058, -1.032, 0.01, 192.0, 0.0, 0.0, 0.0, 0.0, 0.0, 0.0, 0.0, 0.0, 0.0, 1.639999272339548E9, 0.0, 2021-12-20 12:21:12.339
6.0, 187500.0, 187500.0, 187500.0, 187500.0, 187500.0, 187500.0, 187500.0, 187500.0, 187500.0, 187500.0, 187500.0, 187500.0, 21378.907129634277, 187500.0, 187500.0, 187500.0, -0.052000000000000005, -1.03, 0.01, 192.0, 127.0, 48.0, 111.5, 104.0, 0.0, 40.0, 0.0, 0.0, 0.0, 1.639999272345947E9, 0.0, 2021-12-20 12:21:12.345
8.0, 187500.0, 187500.0, 187500.0, 187500.0, 187500.0, 187500.0, 187500.0, 187500.0, 187500.0, 187500.0, 187500.0, 187500.0, 21291.869436725312, 187500.0, 187500.0, 187500.0, -0.052000000000000005, -1.03, 0.01, 192.0, 0.0, 0.0, 0.0, 0.0, 0.0, 0.0, 0.0, 0.0, 0.0, 1.639999272352839E9, 0.0, 2021-12-20 12:21:12.352
10.0, 187500.0, 187500.0, 187500.0, 187500.0, 187500.0, 187500.0, 187500.0, 187500.0, 187500.0, 187500.0, 187500.0, 187500.0, 21178.032002214433, 187500.0, 187500.0, 187500.0, -0.052000000000000005, -1.03, 0.01, 192.0, 0.0, 0.0, 0.0, 0.0, 0.0, 0.0, 0.0, 0.0, 0.0, 1.639999272360275E9, 0.0, 2021-12-20 12:21:12.360
12.0, 187500.0, 187500.0, 187500.0, 187500.0, 187500.0, 187500.0, 187500.0, 187500.0, 187500.0, 187500.0, 187500.0, 187500.0, 21098.41508846463, 187500.0, 187500.0, 187500.0, -0.052000000000000005, -1.03, 0.01, 192.0, 0.0, 0.0, 0.0, 0.0, 0.0, 0.0, 0.0, 0.0, 0.0, 1.639999272368986E9, 0.0, 2021-12-20 12:21:12.368
14.0, 187500.0, 187500.0, 187500.0, 187500.0, 187500.0, 187500.0, 187500.0, 187500.0, 187500.0, 187500.0, 187500.0, 187500.0, 21052.258736164422, 187500.0, 187500.0, 187500.0, -0.052000000000000005, -1.03, 0.01, 192.0, 0.0, 0.0, 0.0, 0.0, 0.0, 0.0, 0.0, 0.0, 0.0, 1.639999272377477E9, 0.0, 2021-12-20 12:21:12.377
16.0, 187500.0, 187500.0, 187500.0, 187500.0, 187500.0, 187500.0, 187500.0, 187500.0, 187500.0, 187500.0, 187500.0, 187500.0, 21020.474555548975, 187500.0, 187500.0, 187500.0, -0.046, -1.034, 0.01, 192.0, 127.0, 72.0, 111.5, 88.0, 0.0, 40.0, 0.0, 0.0, 0.0, 1.639999272382889E9, 0.0, 2021-12-20 12:21:12.382
18.0, 187500.0, 187500.0, 187500.0, 187500.0, 187500.0, 187500.0, 187500.0, 187500.0, 187500.0, 187500.0, 187500.0, 187500.0, 20984.689412676027, 187500.0, 187500.0, 187500.0, -0.046, -1.034, 0.01, 192.0, 0.0, 0.0, 0.0, 0.0, 0.0, 0.0, 0.0, 0.0, 0.0, 1.639999272391002E9, 0.0, 2021-12-20 12:21:12.391
20.0, 187500.0, 187500.0, 187500.0, 187500.0, 187500.0, 187500.0, 187500.0, 187500.0, 187500.0, 187500.0, 187500.0, 187500.0, 20942.399912166587, 187500.0, 187500.0, 187500.0, -0.046, -1.034, 0.01, 192.0, 0.0, 0.0, 0.0, 0.0, 0.0, 0.0, 0.0, 0.0, 0.0, 1.639999272399916E9, 0.0, 2021-12-20 12:21:12.399
22.0, 187500.0, 187500.0, 187500.0, 187500.0, 187500.0, 187500.0, 187500.0, 187500.0, 187500.0, 187500.0, 187500.0, 187500.0, 20911.80037400727, 187500.0, 187500.0, 187500.0, -0.046, -1.034, 0.01, 192.0, 0.0, 0.0, 0.0, 0.0, 0.0, 0.0, 0.0, 0.0, 0.0, 1.639999272412872E9, 0.0, 2021-12-20 12:21:12.412
24.0, 187500.0, 187500.0, 187500.0, 187500.0, 187500.0, 187500.0, 187500.0, 187500.0, 187500.0, 187500.0, 187500.0, 187500.0, 20882.519588770818, 187500.0, 187500.0, 187500.0, -0.046, -1.034, 0.01, 192.0, 0.0, 0.0, 0.0, 0.0, 0.0, 0.0, 0.0, 0.0, 0.0, 1.639999272420571E9, 0.0, 2021-12-20 12:21:12.420
26.0, 187500.0, 187500.0, 187500.0, 187500.0, 187500.0, 187500.0, 187500.0, 187500.0, 187500.0, 187500.0, 187500.0, 187500.0, 20898.05405116726, 187500.0, 187500.0, 187500.0, -0.05, -1.036, 0.018000000000000002, 192.0, 127.0, 56.0, 111.5, 80.0, 0.0, 72.0, 0.0, 0.0, 0.0, 1.639999272428646E9, 0.0, 2021-12-20 12:21:12.428
28.0, 187500.0, 187500.0, 187500.0, 187500.0, 187500.0, 187500.0, 187500.0, 187500.0, 187500.0, 187500.0, 187500.0, 187500.0, 20901.160943646544, 187500.0, 187500.0, 187500.0, -0.05, -1.036, 0.018000000000000002, 192.0, 0.0, 0.0, 0.0, 0.0, 0.0, 0.0, 0.0, 0.0, 0.0, 1.639999272436873E9, 0.0, 2021-12-20 12:21:12.436
30.0, 187500.0, 187500.0, 187500.0, 187500.0, 187500.0, 187500.0, 187500.0, 187500.0, 187500.0, 187500.0, 187500.0, 187500.0, 20836.273829492788, 187500.0, 187500.0, 187500.0, -0.05, -1.036, 0.018000000000000002, 192.0, 0.0, 0.0, 0.0, 0.0, 0.0, 0.0, 0.0, 0.0, 0.0, 1.639999272447515E9, 0.0, 2021-12-20 12:21:12.447
32.0, 187500.0, 187500.0, 187500.0, 187500.0, 187500.0, 187500.0, 187500.0, 187500.0, 187500.0, 187500.0, 187500.0, 187500.0, 20791.2574161598, 187500.0, 187500.0, 187500.0, -0.05, -1.036, 0.018000000000000002, 192.0, 0.0, 0.0, 0.0, 0.0, 0.0, 0.0, 0.0, 0.0, 0.0, 1.639999272451299E9, 0.0, 2021-12-20 12:21:12.451
34.0, 187500.0, 187500.0, 187500.0, 187500.0, 187500.0, 187500.0, 187500.0, 187500.0, 187500.0, 187500.0, 187500.0, 187500.0, 20775.208863640888, 187500.0, 187500.0, 187500.0, -0.05, -1.036, 0.018000000000000002, 192.0, 0.0, 0.0, 0.0, 0.0, 0.0, 0.0, 0.0, 0.0, 0.0, 1.639999272458268E9, 0.0, 2021-12-20 12:21:12.458
36.0, 187500.0, 187500.0, 187500.0, 187500.0, 187500.0, 187500.0, 187500.0, 187500.0, 187500.0, 187500.0, 187500.0, 187500.0, 20756.656915742984, 187500.0, 187500.0, 187500.0, -0.05, -1.034, 0.01, 192.0, 127.0, 56.0, 111.5, 88.0, 0.0, 40.0, 0.0, 0.0, 0.0, 1.63999927246568E9, 0.0, 2021-12-20 12:21:12.465
38.0, 187500.0, 187500.0, 187500.0, 187500.0, 187500.0, 187500.0, 187500.0, 187500.0, 187500.0, 187500.0, 187500.0, 187500.0, 20733.612267209563, 187500.0, 187500.0, 187500.0, -0.05, -1.034, 0.01, 192.0, 0.0, 0.0, 0.0, 0.0, 0.0, 0.0, 0.0, 0.0, 0.0, 1.639999272474986E9, 0.0, 2021-12-20 12:21:12.474
40.0, 187500.0, 187500.0, 187500.0, 187500.0, 187500.0, 187500.0, 187500.0, 187500.0, 187500.0, 187500.0, 187500.0, 187500.0, 20700.71049937135, 187500.0, 187500.0, 187500.0, -0.05, -1.034, 0.01, 192.0, 0.0, 0.0, 0.0, 0.0, 0.0, 0.0, 0.0, 0.0, 0.0, 1.639999272481103E9, 0.0, 2021-12-20 12:21:12.481
42.0, 187500.0, 187500.0, 187500.0, 187500.0, 187500.0, 187500.0, 187500.0, 187500.0, 187500.0, 187500.0, 187500.0, 187500.0, 20724.58216244962, 187500.0, 187500.0, 187500.0, -0.05, -1.034, 0.01, 192.0, 0.0, 0.0, 0.0, 0.0, 0.0, 0.0, 0.0, 0.0, 0.0, 1.639999272487605E9, 0.0, 2021-12-20 12:21:12.487
44.0, 187500.0, 187500.0, 187500.0, 187500.0, 187500.0, 187500.0, 187500.0, 187500.0, 187500.0, 187500.0, 187500.0, 187500.0, 20709.76295587575, 187500.0, 187500.0, 187500.0, -0.05, -1.034, 0.01, 192.0, 0.0, 0.0, 0.0, 0.0, 0.0, 0.0, 0.0, 0.0, 0.0, 1.639999272495578E9, 0.0, 2021-12-20 12:21:12.495
46.0, 187500.0, 187500.0, 187500.0, 187500.0, 187500.0, 187500.0, 187500.0, 187500.0, 187500.0, 187500.0, 187500.0, 187500.0, 20689.311109699145, 187500.0, 187500.0, 187500.0, -0.05, -1.034, 0.011, 192.0, 127.0, 56.0, 111.5, 88.0, 0.0, 48.0, 0.0, 0.0, 0.0, 1.639999272503644E9, 0.0, 2021-12-20 12:21:12.503
48.0, 187500.0, 187500.0, 187500.0, 187500.0, 187500.0, 187500.0, 187500.0, 187500.0, 187500.0, 187500.0, 187500.0, 187500.0, 20687.81354282064, 187500.0, 187500.0, 187500.0, -0.05, -1.034, 0.011, 192.0, 0.0, 0.0, 0.0, 0.0, 0.0, 0.0, 0.0, 0.0, 0.0, 1.639999272512446E9, 0.0, 2021-12-20 12:21:12.512
50.0, 187500.0, 187500.0, 187500.0, 187500.0, 187500.0, 187500.0, 187500.0, 187500.0, 187500.0, 187500.0, 187500.0, 187500.0, 20676.794132804174, 187500.0, 187500.0, 187500.0, -0.05, -1.034, 0.011, 192.0, 0.0, 0.0, 0.0, 0.0, 0.0, 0.0, 0.0, 0.0, 0.0, 1.639999272518183E9, 0.0, 2021-12-20 12:21:12.518
52.0, 187500.0, 187500.0, 187500.0, 187500.0, 187500.0, 187500.0, 187500.0, 187500.0, 187500.0, 187500.0, 187500.0, 187500.0, 20677.777609560206, 187500.0, 187500.0, 187500.0, -0.05, -1.034, 0.011, 192.0, 0.0, 0.0, 0.0, 0.0, 0.0, 0.0, 0.0, 0.0, 0.0, 1.639999272525174E9, 0.0, 2021-12-20 12:21:12.525
54.0, 187500.0, 187500.0, 187500.0, 187500.0, 187500.0, 187500.0, 187500.0, 187500.0, 187500.0, 187500.0, 187500.0, 187500.0, 20669.149836200457, 187500.0, 187500.0, 187500.0, -0.05, -1.034, 0.011, 192.0, 0.0, 0.0, 0.0, 0.0, 0.0, 0.0, 0.0, 0.0, 0.0, 1.63999927254492E9, 0.0, 2021-12-20 12:21:12.544
56.0, 187500.0, 187500.0, 187500.0, 187500.0, 187500.0, 187500.0, 187500.0, 187500.0, 187500.0, 187500.0, 187500.0, 187500.0, 20678.26934793822, 187500.0, 187500.0, 187500.0, -0.048, -1.036, 0.0095, 192.0, 127.0, 72.0, 111.5, 72.0, 0.0, 32.0, 0.0, 0.0, 0.0, 1.639999272548451E9, 0.0, 2021-12-20 12:21:12.548
58.0, 187500.0, 187500.0, 187500.0, 187500.0, 187500.0, 187500.0, 187500.0, 187500.0, 187500.0, 187500.0, 187500.0, 187500.0, 20706.276083740722, 187500.0, 187500.0, 187500.0, -0.048, -1.036, 0.0095, 192.0, 0.0, 0.0, 0.0, 0.0, 0.0, 0.0, 0.0, 0.0, 0.0, 1.639999272555838E9, 0.0, 2021-12-20 12:21:12.555
60.0, 187500.0, 187500.0, 187500.0, 187500.0, 187500.0, 187500.0, 187500.0, 187500.0, 187500.0, 187500.0, 187500.0, 187500.0, 20711.037005309703, 187500.0, 187500.0, 187500.0, -0.048, -1.036, 0.0095, 192.0, 0.0, 0.0, 0.0, 0.0, 0.0, 0.0, 0.0, 0.0, 0.0, 1.639999272562772E9, 0.0, 2021-12-20 12:21:12.562
62.0, 187500.0, 187500.0, 187500.0, 187500.0, 187500.0, 187500.0, 187500.0, 187500.0, 187500.0, 187500.0, 187500.0, 187500.0, 20662.690182052873, 187500.0, 187500.0, 187500.0, -0.048, -1.036, 0.0095, 192.0, 0.0, 0.0, 0.0, 0.0, 0.0, 0.0, 0.0, 0.0, 0.0, 1.639999272576406E9, 0.0, 2021-12-20 12:21:12.576
64.0, 187500.0, 187500.0, 187500.0, 187500.0, 187500.0, 187500.0, 187500.0, 187500.0, 187500.0, 187500.0, 187500.0, 187500.0, 20586.962471838295, 187500.0, 187500.0, 187500.0, -0.048, -1.036, 0.0095, 192.0, 0.0, 0.0, 0.0, 0.0, 0.0, 0.0, 0.0, 0.0, 0.0, 1.639999272579673E9, 0.0, 2021-12-20 12:21:12.579
66.0, 187500.0, 187500.0, 187500.0, 187500.0, 187500.0, 187500.0, 187500.0, 187500.0, 187500.0, 187500.0, 187500.0, 187500.0, 20501.86938069694, 187500.0, 187500.0, 187500.0, -0.046, -1.037, 0.00675, 192.0, 127.0, 80.0, 111.5, 72.0, 0.0, 16.0, 0.0, 0.0, 0.0, 1.639999272587785E9, 0.0, 2021-12-20 12:21:12.587
68.0, 187500.0, 187500.0, 187500.0, 187500.0, 187500.0, 187500.0, 187500.0, 187500.0, 187500.0, 187500.0, 187500.0, 187500.0, 20402.47117310419, 187500.0, 187500.0, 187500.0, -0.046, -1.037, 0.00675, 192.0, 0.0, 0.0, 0.0, 0.0, 0.0, 0.0, 0.0, 0.0, 0.0, 1.63999927259398E9, 0.0, 2021-12-20 12:21:12.593
70.0, 187500.0, 187500.0, 187500.0, 187500.0, 187500.0, 187500.0, 187500.0, 187500.0, 187500.0, 187500.0, 187500.0, 187500.0, 20328.956285590684, 187500.0, 187500.0, 187500.0, -0.046, -1.037, 0.00675, 192.0, 0.0, 0.0, 0.0, 0.0, 0.0, 0.0, 0.0, 0.0, 0.0, 1.639999272600626E9, 0.0, 2021-12-20 12:21:12.600
72.0, 187500.0, 187500.0, 187500.0, 187500.0, 187500.0, 187500.0, 187500.0, 187500.0, 187500.0, 187500.0, 187500.0, 187500.0, 20283.515189113044, 187500.0, 187500.0, 187500.0, -0.046, -1.037, 0.00675, 192.0, 0.0, 0.0, 0.0, 0.0, 0.0, 0.0, 0.0, 0.0, 0.0, 1.639999272608979E9, 0.0, 2021-12-20 12:21:12.608
74.0, 187500.0, 187500.0, 187500.0, 187500.0, 187500.0, 187500.0, 187500.0, 187500.0, 187500.0, 187500.0, 187500.0, 187500.0, 20210.89437137775, 187500.0, 187500.0, 187500.0, -0.046, -1.037, 0.00675, 192.0, 0.0, 0.0, 0.0, 0.0, 0.0, 0.0, 0.0, 0.0, 0.0, 1.63999927261639E9, 0.0, 2021-12-20 12:21:12.616
76.0, 187500.0, 187500.0, 187500.0, 187500.0, 187500.0, 187500.0, 187500.0, 187500.0, 187500.0, 187500.0, 187500.0, 187500.0, 20154.299754416916, 187500.0, 187500.0, 187500.0, -0.048, -1.0375, 0.008375, 192.0, 127.0, 56.0, 111.5, 72.0, 0.0, 40.0, 0.0, 0.0, 0.0, 1.639999272622548E9, 0.0, 2021-12-20 12:21:12.622
78.0, 187500.0, 187500.0, 187500.0, 187500.0, 187500.0, 187500.0, 187500.0, 187500.0, 187500.0, 187500.0, 187500.0, 187500.0, 20138.474719342557, 187500.0, 187500.0, 187500.0, -0.048, -1.0375, 0.008375, 192.0, 0.0, 0.0, 0.0, 0.0, 0.0, 0.0, 0.0, 0.0, 0.0, 1.639999272630629E9, 0.0, 2021-12-20 12:21:12.630
80.0, 187500.0, 187500.0, 187500.0, 187500.0, 187500.0, 187500.0, 187500.0, 187500.0, 187500.0, 187500.0, 187500.0, 187500.0, 20108.858657939276, 187500.0, 187500.0, 187500.0, -0.048, -1.0375, 0.008375, 192.0, 0.0, 0.0, 0.0, 0.0, 0.0, 0.0, 0.0, 0.0, 0.0, 1.639999272639279E9, 0.0, 2021-12-20 12:21:12.639
82.0, 187500.0, 187500.0, 187500.0, 187500.0, 187500.0, 187500.0, 187500.0, 187500.0, 187500.0, 187500.0, 187500.0, 187500.0, 20076.158055801163, 187500.0, 187500.0, 187500.0, -0.048, -1.0375, 0.008375, 192.0, 0.0, 0.0, 0.0, 0.0, 0.0, 0.0, 0.0, 0.0, 0.0, 1.639999272646385E9, 0.0, 2021-12-20 12:21:12.646
84.0, 187500.0, 187500.0, 187500.0, 187500.0, 187500.0, 187500.0, 187500.0, 187500.0, 187500.0, 187500.0, 187500.0, 187500.0, 20033.68974133608, 187500.0, 187500.0, 187500.0, -0.048, -1.0375, 0.008375, 192.0, 0.0, 0.0, 0.0, 0.0, 0.0, 0.0, 0.0, 0.0, 0.0, 1.639999272660201E9, 0.0, 2021-12-20 12:21:12.660
86.0, 187500.0, 187500.0, 187500.0, 187500.0, 187500.0, 187500.0, 187500.0, 187500.0, 187500.0, 187500.0, 187500.0, 187500.0, 19970.85898767221, 187500.0, 187500.0, 187500.0, -0.048, -1.03475, 0.009187500000000001, 192.0, 127.0, 64.0, 111.5, 96.0, 0.0, 40.0, 0.0, 0.0, 0.0, 1.639999272669015E9, 0.0, 2021-12-20 12:21:12.669
88.0, 187500.0, 187500.0, 187500.0, 187500.0, 187500.0, 187500.0, 187500.0, 187500.0, 187500.0, 187500.0, 187500.0, 187500.0, 19904.295492684305, 187500.0, 187500.0, 187500.0, -0.048, -1.03475, 0.009187500000000001, 192.0, 0.0, 0.0, 0.0, 0.0, 0.0, 0.0, 0.0, 0.0, 0.0, 1.639999272677465E9, 0.0, 2021-12-20 12:21:12.677
90.0, 187500.0, 187500.0, 187500.0, 187500.0, 187500.0, 187500.0, 187500.0, 187500.0, 187500.0, 187500.0, 187500.0, 187500.0, 19854.987544415897, 187500.0, 187500.0, 187500.0, -0.048, -1.03475, 0.009187500000000001, 192.0, 0.0, 0.0, 0.0, 0.0, 0.0, 0.0, 0.0, 0.0, 0.0, 1.639999272683074E9, 0.0, 2021-12-20 12:21:12.683
92.0, 187500.0, 187500.0, 187500.0, 187500.0, 187500.0, 187500.0, 187500.0, 187500.0, 187500.0, 187500.0, 187500.0, 187500.0, 19812.74274739537, 187500.0, 187500.0, 187500.0, -0.048, -1.03475, 0.009187500000000001, 192.0, 0.0, 0.0, 0.0, 0.0, 0.0, 0.0, 0.0, 0.0, 0.0, 1.639999272690964E9, 0.0, 2021-12-20 12:21:12.690
94.0, 187500.0, 187500.0, 187500.0, 187500.0, 187500.0, 187500.0, 187500.0, 187500.0, 187500.0, 187500.0, 187500.0, 187500.0, 19778.522226634293, 187500.0, 187500.0, 187500.0, -0.048, -1.03475, 0.009187500000000001, 192.0, 0.0, 0.0, 0.0, 0.0, 0.0, 0.0, 0.0, 0.0, 0.0, 1.63999927269854E9, 0.0, 2021-12-20 12:21:12.698
96.0, 187500.0, 187500.0, 187500.0, 187500.0, 187500.0, 187500.0, 187500.0, 187500.0, 187500.0, 187500.0, 187500.0, 187500.0, 19691.84216163661, 187500.0, 187500.0, 187500.0, -0.048, -1.03475, 0.009187500000000001, 192.0, 0.0, 0.0, 0.0, 0.0, 0.0, 0.0, 0.0, 0.0, 0.0, 1.639999272706408E9, 0.0, 2021-12-20 12:21:12.706
98.0, 187500.0, 187500.0, 187500.0, 187500.0, 187500.0, 187500.0, 187500.0, 187500.0, 187500.0, 187500.0, 187500.0, 187500.0, 19593.2262650998, 187500.0, 187500.0, 187500.0, -0.056, -1.034, 0.01, 192.0, 127.0, 32.0, 111.5, 88.0, 0.0, 40.0, 0.0, 0.0, 0.0, 1.639999272712942E9, 0.0, 2021-12-20 12:21:12.712
100.0, 187500.0, 187500.0, 187500.0, 187500.0, 187500.0, 187500.0, 187500.0, 187500.0, 187500.0, 187500.0, 187500.0, 187500.0, 19499.57245583206, 187500.0, 187500.0, 187500.0, -0.056, -1.034, 0.01, 192.0, 0.0, 0.0, 0.0, 0.0, 0.0, 0.0, 0.0, 0.0, 0.0, 1.63999927272063E9, 0.0, 2021-12-20 12:21:12.720
102.0, 187500.0, 187500.0, 187500.0, 187500.0, 187500.0, 187500.0, 187500.0, 187500.0, 187500.0, 187500.0, 187500.0, 187500.0, 19420.536687438096, 187500.0, 187500.0, 187500.0, -0.056, -1.034, 0.01, 192.0, 0.0, 0.0, 0.0, 0.0, 0.0, 0.0, 0.0, 0.0, 0.0, 1.639999272727598E9, 0.0, 2021-12-20 12:21:12.727
104.0, 187500.0, 187500.0, 187500.0, 187500.0, 187500.0, 187500.0, 187500.0, 187500.0, 187500.0, 187500.0, 187500.0, 187500.0, 19345.703047001727, 187500.0, 187500.0, 187500.0, -0.056, -1.034, 0.01, 192.0, 0.0, 0.0, 0.0, 0.0, 0.0, 0.0, 0.0, 0.0, 0.0, 1.639999272735496E9, 0.0, 2021-12-20 12:21:12.735
106.0, 187500.0, 187500.0, 187500.0, 187500.0, 187500.0, 187500.0, 187500.0, 187500.0, 187500.0, 187500.0, 187500.0, 187500.0, 19333.431939295762, 187500.0, 187500.0, 187500.0, -0.056, -1.034, 0.01, 192.0, 0.0, 0.0, 0.0, 0.0, 0.0, 0.0, 0.0, 0.0, 0.0, 1.639999272744378E9, 0.0, 2021-12-20 12:21:12.744
108.0, 187500.0, 187500.0, 187500.0, 187500.0, 187500.0, 187500.0, 187500.0, 187500.0, 187500.0, 187500.0, 187500.0, 187500.0, 19316.19874432072, 187500.0, 187500.0, 187500.0, -0.056, -1.032, 0.008, 192.0, 127.0, 32.0, 111.5, 96.0, 0.0, 32.0, 0.0, 0.0, 0.0, 1.639999272750257E9, 0.0, 2021-12-20 12:21:12.750
110.0, 187500.0, 187500.0, 187500.0, 187500.0, 187500.0, 187500.0, 187500.0, 187500.0, 187500.0, 187500.0, 187500.0, 187500.0, 19275.67503162325, 187500.0, 187500.0, 187500.0, -0.056, -1.032, 0.008, 192.0, 0.0, 0.0, 0.0, 0.0, 0.0, 0.0, 0.0, 0.0, 0.0, 1.639999272757859E9, 0.0, 2021-12-20 12:21:12.757
112.0, 187500.0, 187500.0, 187500.0, 187500.0, 187500.0, 187500.0, 187500.0, 187500.0, 187500.0, 187500.0, 187500.0, 187500.0, 19230.703321779172, 187500.0, 187500.0, 187500.0, -0.056, -1.032, 0.008, 192.0, 0.0, 0.0, 0.0, 0.0, 0.0, 0.0, 0.0, 0.0, 0.0, 1.639999272766168E9, 0.0, 2021-12-20 12:21:12.766
114.0, 187500.0, 187500.0, 187500.0, 187500.0, 187500.0, 187500.0, 187500.0, 187500.0, 187500.0, 187500.0, 187500.0, 187500.0, 19153.478044686086, 187500.0, 187500.0, 187500.0, -0.056, -1.032, 0.008, 192.0, 0.0, 0.0, 0.0, 0.0, 0.0, 0.0, 0.0, 0.0, 0.0, 1.639999272775644E9, 0.0, 2021-12-20 12:21:12.775
116.0, 187500.0, 187500.0, 187500.0, 187500.0, 187500.0, 187500.0, 187500.0, 187500.0, 187500.0, 187500.0, 187500.0, 187500.0, 19069.34607855631, 187500.0, 187500.0, 187500.0, -0.056, -1.032, 0.008, 192.0, 0.0, 0.0, 0.0, 0.0, 0.0, 0.0, 0.0, 0.0, 0.0, 1.639999272787439E9, 0.0, 2021-12-20 12:21:12.787
118.0, 187500.0, 187500.0, 187500.0, 187500.0, 187500.0, 187500.0, 187500.0, 187500.0, 187500.0, 187500.0, 187500.0, 187500.0, 18960.76130399243, 187500.0, 187500.0, 187500.0, -0.048, -1.036, 0.008, 192.0, 127.0, 64.0, 111.5, 80.0, 0.0, 32.0, 0.0, 0.0, 0.0, 1.639999272795445E9, 0.0, 2021-12-20 12:21:12.795
120.0, 187500.0, 187500.0, 187500.0, 187500.0, 187500.0, 187500.0, 187500.0, 187500.0, 187500.0, 187500.0, 187500.0, 187500.0, 18836.373846098646, 187500.0, 187500.0, 187500.0, -0.048, -1.036, 0.008, 192.0, 0.0, 0.0, 0.0, 0.0, 0.0, 0.0, 0.0, 0.0, 0.0, 1.639999272804284E9, 0.0, 2021-12-20 12:21:12.804
122.0, 187500.0, 187500.0, 187500.0, 187500.0, 187500.0, 187500.0, 187500.0, 187500.0, 187500.0, 187500.0, 187500.0, 187500.0, 18742.85414729764, 187500.0, 187500.0, 187500.0, -0.048, -1.036, 0.008, 192.0, 0.0, 0.0, 0.0, 0.0, 0.0, 0.0, 0.0, 0.0, 0.0, 1.639999272813102E9, 0.0, 2021-12-20 12:21:12.813
124.0, 187500.0, 187500.0, 187500.0, 187500.0, 187500.0, 187500.0, 187500.0, 187500.0, 187500.0, 187500.0, 187500.0, 187500.0, 18631.743625610306, 187500.0, 187500.0, 187500.0, -0.048, -1.036, 0.008, 192.0, 0.0, 0.0, 0.0, 0.0, 0.0, 0.0, 0.0, 0.0, 0.0, 1.639999272818031E9, 0.0, 2021-12-20 12:21:12.818
126.0, 187500.0, 187500.0, 187500.0, 187500.0, 187500.0, 187500.0, 187500.0, 187500.0, 187500.0, 187500.0, 187500.0, 187500.0, 18521.52717370119, 187500.0, 187500.0, 187500.0, -0.048, -1.036, 0.008, 192.0, 0.0, 0.0, 0.0, 0.0, 0.0, 0.0, 0.0, 0.0, 0.0, 1.639999272826279E9, 0.0, 2021-12-20 12:21:12.826
128.0, 187500.0, 187500.0, 187500.0, 187500.0, 187500.0, 187500.0, 187500.0, 187500.0, 187500.0, 187500.0, 187500.0, 187500.0, 18432.433120302336, 187500.0, 187500.0, 187500.0, -0.048, -1.034, 0.004, 192.0, 127.0, 64.0, 111.5, 88.0, 0.0, 16.0, 0.0, 0.0, 0.0, 1.639999272833599E9, 0.0, 2021-12-20 12:21:12.833
130.0, 187500.0, 187500.0, 187500.0, 187500.0, 187500.0, 187500.0, 187500.0, 187500.0, 187500.0, 187500.0, 187500.0, 187500.0, 18355.788988565087, 187500.0, 187500.0, 187500.0, -0.048, -1.034, 0.004, 192.0, 0.0, 0.0, 0.0, 0.0, 0.0, 0.0, 0.0, 0.0, 0.0, 1.639999272843221E9, 0.0, 2021-12-20 12:21:12.843
132.0, 187500.0, 187500.0, 187500.0, 187500.0, 187500.0, 187500.0, 187500.0, 187500.0, 187500.0, 187500.0, 187500.0, 187500.0, 18290.00780463312, 187500.0, 187500.0, 187500.0, -0.048, -1.034, 0.004, 192.0, 0.0, 0.0, 0.0, 0.0, 0.0, 0.0, 0.0, 0.0, 0.0, 1.63999927284786E9, 0.0, 2021-12-20 12:21:12.847
134.0, 187500.0, 187500.0, 187500.0, 187500.0, 187500.0, 187500.0, 187500.0, 187500.0, 187500.0, 187500.0, 187500.0, 187500.0, 18217.07406247545, 187500.0, 187500.0, 187500.0, -0.048, -1.034, 0.004, 192.0, 0.0, 0.0, 0.0, 0.0, 0.0, 0.0, 0.0, 0.0, 0.0, 1.639999272855807E9, 0.0, 2021-12-20 12:21:12.855
136.0, 187500.0, 187500.0, 187500.0, 187500.0, 187500.0, 187500.0, 187500.0, 187500.0, 187500.0, 187500.0, 187500.0, 187500.0, 18166.626175239824, 187500.0, 187500.0, 187500.0, -0.048, -1.034, 0.004, 192.0, 0.0, 0.0, 0.0, 0.0, 0.0, 0.0, 0.0, 0.0, 0.0, 1.639999272862787E9, 0.0, 2021-12-20 12:21:12.862
138.0, 187500.0, 187500.0, 187500.0, 187500.0, 187500.0, 187500.0, 187500.0, 187500.0, 187500.0, 187500.0, 187500.0, 187500.0, 18137.16657604773, 187500.0, 187500.0, 187500.0, -0.048, -1.038, 0.006, 192.0, 127.0, 64.0, 111.5, 72.0, 0.0, 24.0, 0.0, 0.0, 0.0, 1.639999272871466E9, 0.0, 2021-12-20 12:21:12.871
140.0, 187500.0, 187500.0, 187500.0, 187500.0, 187500.0, 187500.0, 187500.0, 187500.0, 187500.0, 187500.0, 187500.0, 187500.0, 18089.378546402284, 187500.0, 187500.0, 187500.0, -0.048, -1.038, 0.006, 192.0, 0.0, 0.0, 0.0, 0.0, 0.0, 0.0, 0.0, 0.0, 0.0, 1.639999272878412E9, 0.0, 2021-12-20 12:21:12.878
142.0, 187500.0, 187500.0, 187500.0, 187500.0, 187500.0, 187500.0, 187500.0, 187500.0, 187500.0, 187500.0, 187500.0, 187500.0, 18058.980173943066, 187500.0, 187500.0, 187500.0, -0.048, -1.038, 0.006, 192.0, 0.0, 0.0, 0.0, 0.0, 0.0, 0.0, 0.0, 0.0, 0.0, 1.639999272885488E9, 0.0, 2021-12-20 12:21:12.885
144.0, 187500.0, 187500.0, 187500.0, 187500.0, 187500.0, 187500.0, 187500.0, 187500.0, 187500.0, 187500.0, 187500.0, 187500.0, 18014.075519332353, 187500.0, 187500.0, 187500.0, -0.048, -1.038, 0.006, 192.0, 0.0, 0.0, 0.0, 0.0, 0.0, 0.0, 0.0, 0.0, 0.0, 1.639999272893484E9, 0.0, 2021-12-20 12:21:12.893
146.0, 187500.0, 187500.0, 187500.0, 187500.0, 187500.0, 187500.0, 187500.0, 187500.0, 187500.0, 187500.0, 187500.0, 187500.0, 17963.135893718707, 187500.0, 187500.0, 187500.0, -0.048, -1.038, 0.006, 192.0, 0.0, 0.0, 0.0, 0.0, 0.0, 0.0, 0.0, 0.0, 0.0, 1.639999272908708E9, 0.0, 2021-12-20 12:21:12.908
148.0, 187500.0, 187500.0, 187500.0, 187500.0, 187500.0, 187500.0, 187500.0, 187500.0, 187500.0, 187500.0, 187500.0, 187500.0, 17911.88334368269, 187500.0, 187500.0, 187500.0, -0.047, -1.0350000000000001, 0.008, 192.0, 127.0, 72.0, 111.5, 96.0, 0.0, 40.0, 0.0, 0.0, 0.0, 1.639999272915191E9, 0.0, 2021-12-20 12:21:12.915
150.0, 187500.0, 187500.0, 187500.0, 187500.0, 187500.0, 187500.0, 187500.0, 187500.0, 187500.0, 187500.0, 187500.0, 187500.0, 17842.72704633797, 187500.0, 187500.0, 187500.0, -0.047, -1.0350000000000001, 0.008, 192.0, 0.0, 0.0, 0.0, 0.0, 0.0, 0.0, 0.0, 0.0, 0.0, 1.639999272922618E9, 0.0, 2021-12-20 12:21:12.922
152.0, 187500.0, 187500.0, 187500.0, 187500.0, 187500.0, 187500.0, 187500.0, 187500.0, 187500.0, 187500.0, 187500.0, 187500.0, 17775.224778082942, 187500.0, 187500.0, 187500.0, -0.047, -1.0350000000000001, 0.008, 192.0, 0.0, 0.0, 0.0, 0.0, 0.0, 0.0, 0.0, 0.0, 0.0, 1.639999272931479E9, 0.0, 2021-12-20 12:21:12.931
154.0, 187500.0, 187500.0, 187500.0, 187500.0, 187500.0, 187500.0, 187500.0, 187500.0, 187500.0, 187500.0, 187500.0, 187500.0, 17687.15890492903, 187500.0, 187500.0, 187500.0, -0.047, -1.0350000000000001, 0.008, 192.0, 0.0, 0.0, 0.0, 0.0, 0.0, 0.0, 0.0, 0.0, 0.0, 1.639999272938992E9, 0.0, 2021-12-20 12:21:12.938
156.0, 187500.0, 187500.0, 187500.0, 187500.0, 187500.0, 187500.0, 187500.0, 187500.0, 187500.0, 187500.0, 187500.0, 187500.0, 17599.987101553335, 187500.0, 187500.0, 187500.0, -0.047, -1.0350000000000001, 0.008, 192.0, 0.0, 0.0, 0.0, 0.0, 0.0, 0.0, 0.0, 0.0, 0.0, 1.639999272945367E9, 0.0, 2021-12-20 12:21:12.945
158.0, 187500.0, 187500.0, 187500.0, 187500.0, 187500.0, 187500.0, 187500.0, 187500.0, 187500.0, 187500.0, 187500.0, 187500.0, 17568.605252338082, 187500.0, 187500.0, 187500.0, -0.0435, -1.0365000000000002, 0.006, 192.0, 127.0, 96.0, 111.5, 72.0, 0.0, 16.0, 0.0, 0.0, 0.0, 1.639999272953272E9, 0.0, 2021-12-20 12:21:12.953
160.0, 187500.0, 187500.0, 187500.0, 187500.0, 187500.0, 187500.0, 187500.0, 187500.0, 187500.0, 187500.0, 187500.0, 187500.0, 17556.28944114321, 187500.0, 187500.0, 187500.0, -0.0435, -1.0365000000000002, 0.006, 192.0, 0.0, 0.0, 0.0, 0.0, 0.0, 0.0, 0.0, 0.0, 0.0, 1.639999272961092E9, 0.0, 2021-12-20 12:21:12.961
162.0, 187500.0, 187500.0, 187500.0, 187500.0, 187500.0, 187500.0, 187500.0, 187500.0, 187500.0, 187500.0, 187500.0, 187500.0, 17565.811284281168, 187500.0, 187500.0, 187500.0, -0.0435, -1.0365000000000002, 0.006, 192.0, 0.0, 0.0, 0.0, 0.0, 0.0, 0.0, 0.0, 0.0, 0.0, 1.639999272968391E9, 0.0, 2021-12-20 12:21:12.968
164.0, 187500.0, 187500.0, 187500.0, 187500.0, 187500.0, 187500.0, 187500.0, 187500.0, 187500.0, 187500.0, 187500.0, 187500.0, 17605.9550173229, 187500.0, 187500.0, 187500.0, -0.0435, -1.0365000000000002, 0.006, 192.0, 0.0, 0.0, 0.0, 0.0, 0.0, 0.0, 0.0, 0.0, 0.0, 1.639999272975113E9, 0.0, 2021-12-20 12:21:12.975
166.0, 187500.0, 187500.0, 187500.0, 187500.0, 187500.0, 187500.0, 187500.0, 187500.0, 187500.0, 187500.0, 187500.0, 187500.0, 17666.43883781896, 187500.0, 187500.0, 187500.0, -0.0435, -1.0365000000000002, 0.006, 192.0, 0.0, 0.0, 0.0, 0.0, 0.0, 0.0, 0.0, 0.0, 0.0, 1.639999272984067E9, 0.0, 2021-12-20 12:21:12.984
168.0, 187500.0, 187500.0, 187500.0, 187500.0, 187500.0, 187500.0, 187500.0, 187500.0, 187500.0, 187500.0, 187500.0, 187500.0, 17751.0401905823, 187500.0, 187500.0, 187500.0, -0.040749999999999995, -1.0382500000000001, 0.005, 192.0, 127.0, 104.0, 111.5, 64.0, 0.0, 16.0, 0.0, 0.0, 0.0, 1.639999272991004E9, 0.0, 2021-12-20 12:21:12.991
170.0, 187500.0, 187500.0, 187500.0, 187500.0, 187500.0, 187500.0, 187500.0, 187500.0, 187500.0, 187500.0, 187500.0, 187500.0, 17776.677641472535, 187500.0, 187500.0, 187500.0, -0.040749999999999995, -1.0382500000000001, 0.005, 192.0, 0.0, 0.0, 0.0, 0.0, 0.0, 0.0, 0.0, 0.0, 0.0, 1.639999272998358E9, 0.0, 2021-12-20 12:21:12.998
172.0, 187500.0, 187500.0, 187500.0, 187500.0, 187500.0, 187500.0, 187500.0, 187500.0, 187500.0, 187500.0, 187500.0, 187500.0, 17775.537702505317, 187500.0, 187500.0, 187500.0, -0.040749999999999995, -1.0382500000000001, 0.005, 192.0, 0.0, 0.0, 0.0, 0.0, 0.0, 0.0, 0.0, 0.0, 0.0, 1.639999273005944E9, 0.0, 2021-12-20 12:21:13.005
174.0, 187500.0, 187500.0, 187500.0, 187500.0, 187500.0, 187500.0, 187500.0, 187500.0, 187500.0, 187500.0, 187500.0, 187500.0, 17787.451182299996, 187500.0, 187500.0, 187500.0, -0.040749999999999995, -1.0382500000000001, 0.005, 192.0, 0.0, 0.0, 0.0, 0.0, 0.0, 0.0, 0.0, 0.0, 0.0, 1.639999273013568E9, 0.0, 2021-12-20 12:21:13.013
176.0, 187500.0, 187500.0, 187500.0, 187500.0, 187500.0, 187500.0, 187500.0, 187500.0, 187500.0, 187500.0, 187500.0, 187500.0, 17791.38508932413, 187500.0, 187500.0, 187500.0, -0.040749999999999995, -1.0382500000000001, 0.005, 192.0, 0.0, 0.0, 0.0, 0.0, 0.0, 0.0, 0.0, 0.0, 0.0, 1.639999273020586E9, 0.0, 2021-12-20 12:21:13.020
178.0, 187500.0, 187500.0, 187500.0, 187500.0, 187500.0, 187500.0, 187500.0, 187500.0, 187500.0, 187500.0, 187500.0, 187500.0, 17789.395784067605, 187500.0, 187500.0, 187500.0, -0.038375, -1.037125, 0.0015, 192.0, 127.0, 112.0, 111.5, 80.0, 127.5, 120.0, 0.0, 0.0, 0.0, 1.639999273038811E9, 0.0, 2021-12-20 12:21:13.038
180.0, 187500.0, 187500.0, 187500.0, 187500.0, 187500.0, 187500.0, 187500.0, 187500.0, 187500.0, 187500.0, 187500.0, 187500.0, 17783.85255144269, 187500.0, 187500.0, 187500.0, -0.038375, -1.037125, 0.0015, 192.0, 0.0, 0.0, 0.0, 0.0, 0.0, 0.0, 0.0, 0.0, 0.0, 1.639999273043835E9, 0.0, 2021-12-20 12:21:13.043
182.0, 187500.0, 187500.0, 187500.0, 187500.0, 187500.0, 187500.0, 187500.0, 187500.0, 187500.0, 187500.0, 187500.0, 187500.0, 17840.827148059267, 187500.0, 187500.0, 187500.0, -0.038375, -1.037125, 0.0015, 192.0, 0.0, 0.0, 0.0, 0.0, 0.0, 0.0, 0.0, 0.0, 0.0, 1.639999273049897E9, 0.0, 2021-12-20 12:21:13.049
184.0, 187500.0, 187500.0, 187500.0, 187500.0, 187500.0, 187500.0, 187500.0, 187500.0, 187500.0, 187500.0, 187500.0, 187500.0, 17887.296424781853, 187500.0, 187500.0, 187500.0, -0.038375, -1.037125, 0.0015, 192.0, 0.0, 0.0, 0.0, 0.0, 0.0, 0.0, 0.0, 0.0, 0.0, 1.639999273057741E9, 0.0, 2021-12-20 12:21:13.057
186.0, 187500.0, 187500.0, 187500.0, 187500.0, 187500.0, 187500.0, 187500.0, 187500.0, 187500.0, 187500.0, 187500.0, 187500.0, 17921.762814731934, 187500.0, 187500.0, 187500.0, -0.038375, -1.037125, 0.0015, 192.0, 0.0, 0.0, 0.0, 0.0, 0.0, 0.0, 0.0, 0.0, 0.0, 1.639999273068308E9, 0.0, 2021-12-20 12:21:13.068
188.0, 187500.0, 187500.0, 187500.0, 187500.0, 187500.0, 187500.0, 187500.0, 187500.0, 187500.0, 187500.0, 187500.0, 187500.0, 17911.45866053804, 187500.0, 187500.0, 187500.0, -0.0371875, -1.0395625000000002, 7.5E-4, 192.0, 127.0, 112.0, 111.5, 56.0, 0.0, 0.0, 0.0, 0.0, 0.0, 1.639999273075687E9, 0.0, 2021-12-20 12:21:13.075
190.0, 187500.0, 187500.0, 187500.0, 187500.0, 187500.0, 187500.0, 187500.0, 187500.0, 187500.0, 187500.0, 187500.0, 187500.0, 17858.462674434504, 187500.0, 187500.0, 187500.0, -0.0371875, -1.0395625000000002, 7.5E-4, 192.0, 0.0, 0.0, 0.0, 0.0, 0.0, 0.0, 0.0, 0.0, 0.0, 1.639999273080329E9, 0.0, 2021-12-20 12:21:13.080
192.0, 187500.0, 187500.0, 187500.0, 187500.0, 187500.0, 187500.0, 187500.0, 187500.0, 187500.0, 187500.0, 187500.0, 187500.0, 17823.124566450664, 187500.0, 187500.0, 187500.0, -0.0371875, -1.0395625000000002, 7.5E-4, 192.0, 0.0, 0.0, 0.0, 0.0, 0.0, 0.0, 0.0, 0.0, 0.0, 1.639999273087431E9, 0.0, 2021-12-20 12:21:13.087
194.0, 187500.0, 187500.0, 187500.0, 187500.0, 187500.0, 187500.0, 187500.0, 187500.0, 187500.0, 187500.0, 187500.0, 187500.0, 17764.27242329984, 187500.0, 187500.0, 187500.0, -0.0371875, -1.0395625000000002, 7.5E-4, 192.0, 0.0, 0.0, 0.0, 0.0, 0.0, 0.0, 0.0, 0.0, 0.0, 1.639999273095467E9, 0.0, 2021-12-20 12:21:13.095
196.0, 187500.0, 187500.0, 187500.0, 187500.0, 187500.0, 187500.0, 187500.0, 187500.0, 187500.0, 187500.0, 187500.0, 187500.0, 17728.599039149172, 187500.0, 187500.0, 187500.0, -0.0371875, -1.0395625000000002, 7.5E-4, 192.0, 0.0, 0.0, 0.0, 0.0, 0.0, 0.0, 0.0, 0.0, 0.0, 1.639999273102937E9, 0.0, 2021-12-20 12:21:13.102
198.0, 187500.0, 187500.0, 187500.0, 187500.0, 187500.0, 187500.0, 187500.0, 187500.0, 187500.0, 187500.0, 187500.0, 187500.0, 17721.93821930149, 187500.0, 187500.0, 187500.0, -0.0371875, -1.0395625000000002, 7.5E-4, 192.0, 0.0, 0.0, 0.0, 0.0, 0.0, 0.0, 0.0, 0.0, 0.0, 1.639999273111822E9, 0.0, 2021-12-20 12:21:13.111
200.0, 187500.0, 187500.0, 187500.0, 187500.0, 187500.0, 187500.0, 187500.0, 187500.0, 187500.0, 187500.0, 187500.0, 187500.0, 17659.845073204648, 187500.0, 187500.0, 187500.0, -0.036000000000000004, -1.038, -0.002, 192.0, 127.0, 112.0, 111.5, 72.0, 127.5, 120.0, 0.0, 0.0, 0.0, 1.63999927311813E9, 0.0, 2021-12-20 12:21:13.118
202.0, 187500.0, 187500.0, 187500.0, 187500.0, 187500.0, 187500.0, 187500.0, 187500.0, 187500.0, 187500.0, 187500.0, 187500.0, 17584.407935667987, 187500.0, 187500.0, 187500.0, -0.036000000000000004, -1.038, -0.002, 192.0, 0.0, 0.0, 0.0, 0.0, 0.0, 0.0, 0.0, 0.0, 0.0, 1.639999273125244E9, 0.0, 2021-12-20 12:21:13.125
204.0, 187500.0, 187500.0, 187500.0, 187500.0, 187500.0, 187500.0, 187500.0, 187500.0, 187500.0, 187500.0, 187500.0, 187500.0, 17527.746263473782, 187500.0, 187500.0, 187500.0, -0.036000000000000004, -1.038, -0.002, 192.0, 0.0, 0.0, 0.0, 0.0, 0.0, 0.0, 0.0, 0.0, 0.0, 1.639999273132892E9, 0.0, 2021-12-20 12:21:13.132
206.0, 187500.0, 187500.0, 187500.0, 187500.0, 187500.0, 187500.0, 187500.0, 187500.0, 187500.0, 187500.0, 187500.0, 187500.0, 17514.69284471188, 187500.0, 187500.0, 187500.0, -0.036000000000000004, -1.038, -0.002, 192.0, 0.0, 0.0, 0.0, 0.0, 0.0, 0.0, 0.0, 0.0, 0.0, 1.639999273147362E9, 0.0, 2021-12-20 12:21:13.147
208.0, 187500.0, 187500.0, 187500.0, 187500.0, 187500.0, 187500.0, 187500.0, 187500.0, 187500.0, 187500.0, 187500.0, 187500.0, 17510.825992921113, 187500.0, 187500.0, 187500.0, -0.036000000000000004, -1.038, -0.002, 192.0, 0.0, 0.0, 0.0, 0.0, 0.0, 0.0, 0.0, 0.0, 0.0, 1.639999273155487E9, 0.0, 2021-12-20 12:21:13.155
210.0, 187500.0, 187500.0, 187500.0, 187500.0, 187500.0, 187500.0, 187500.0, 187500.0, 187500.0, 187500.0, 187500.0, 187500.0, 17479.22062626131, 187500.0, 187500.0, 187500.0, -0.036000000000000004, -1.028, 0.008, 192.0, 127.0, 112.0, 111.5, 112.0, 0.0, 32.0, 0.0, 0.0, 0.0, 1.639999273162336E9, 0.0, 2021-12-20 12:21:13.162
212.0, 187500.0, 187500.0, 187500.0, 187500.0, 187500.0, 187500.0, 187500.0, 187500.0, 187500.0, 187500.0, 187500.0, 187500.0, 17413.662959773894, 187500.0, 187500.0, 187500.0, -0.036000000000000004, -1.028, 0.008, 192.0, 0.0, 0.0, 0.0, 0.0, 0.0, 0.0, 0.0, 0.0, 0.0, 1.639999273170724E9, 0.0, 2021-12-20 12:21:13.170
214.0, 187500.0, 187500.0, 187500.0, 187500.0, 187500.0, 187500.0, 187500.0, 187500.0, 187500.0, 187500.0, 187500.0, 187500.0, 17330.894450055894, 187500.0, 187500.0, 187500.0, -0.036000000000000004, -1.028, 0.008, 192.0, 0.0, 0.0, 0.0, 0.0, 0.0, 0.0, 0.0, 0.0, 0.0, 1.639999273180167E9, 0.0, 2021-12-20 12:21:13.180
216.0, 187500.0, 187500.0, 187500.0, 187500.0, 187500.0, 187500.0, 187500.0, 187500.0, 187500.0, 187500.0, 187500.0, 187500.0, 17275.596234273464, 187500.0, 187500.0, 187500.0, -0.036000000000000004, -1.028, 0.008, 192.0, 0.0, 0.0, 0.0, 0.0, 0.0, 0.0, 0.0, 0.0, 0.0, 1.639999273187407E9, 0.0, 2021-12-20 12:21:13.187
218.0, 187500.0, 187500.0, 187500.0, 187500.0, 187500.0, 187500.0, 187500.0, 187500.0, 187500.0, 187500.0, 187500.0, 187500.0, 17224.187222026256, 187500.0, 187500.0, 187500.0, -0.036000000000000004, -1.028, 0.008, 192.0, 0.0, 0.0, 0.0, 0.0, 0.0, 0.0, 0.0, 0.0, 0.0, 1.639999273193931E9, 0.0, 2021-12-20 12:21:13.193
220.0, 187500.0, 187500.0, 187500.0, 187500.0, 187500.0, 187500.0, 187500.0, 187500.0, 187500.0, 187500.0, 187500.0, 187500.0, 17135.0931686274, 187500.0, 187500.0, 187500.0, -0.04, -1.03, -0.004, 192.0, 127.0, 96.0, 111.5, 104.0, 127.5, 112.0, 0.0, 0.0, 0.0, 1.639999273201059E9, 0.0, 2021-12-20 12:21:13.201
222.0, 187500.0, 187500.0, 187500.0, 187500.0, 187500.0, 187500.0, 187500.0, 187500.0, 187500.0, 187500.0, 187500.0, 187500.0, 17051.542347853465, 187500.0, 187500.0, 187500.0, -0.04, -1.03, -0.004, 192.0, 0.0, 0.0, 0.0, 0.0, 0.0, 0.0, 0.0, 0.0, 0.0, 1.639999273208766E9, 0.0, 2021-12-20 12:21:13.208
224.0, 187500.0, 187500.0, 187500.0, 187500.0, 187500.0, 187500.0, 187500.0, 187500.0, 187500.0, 187500.0, 187500.0, 187500.0, 16948.43375068113, 187500.0, 187500.0, 187500.0, -0.04, -1.03, -0.004, 192.0, 0.0, 0.0, 0.0, 0.0, 0.0, 0.0, 0.0, 0.0, 0.0, 1.639999273215194E9, 0.0, 2021-12-20 12:21:13.215
226.0, 187500.0, 187500.0, 187500.0, 187500.0, 187500.0, 187500.0, 187500.0, 187500.0, 187500.0, 187500.0, 187500.0, 187500.0, 16852.6788774346, 187500.0, 187500.0, 187500.0, -0.04, -1.03, -0.004, 192.0, 0.0, 0.0, 0.0, 0.0, 0.0, 0.0, 0.0, 0.0, 0.0, 1.639999273225944E9, 0.0, 2021-12-20 12:21:13.225
228.0, 187500.0, 187500.0, 187500.0, 187500.0, 187500.0, 187500.0, 187500.0, 187500.0, 187500.0, 187500.0, 187500.0, 187500.0, 16769.79860899432, 187500.0, 187500.0, 187500.0, -0.04, -1.03, -0.004, 192.0, 0.0, 0.0, 0.0, 0.0, 0.0, 0.0, 0.0, 0.0, 0.0, 1.639999273230698E9, 0.0, 2021-12-20 12:21:13.230
230.0, 187500.0, 187500.0, 187500.0, 187500.0, 187500.0, 187500.0, 187500.0, 187500.0, 187500.0, 187500.0, 187500.0, 187500.0, 16656.96700298393, 187500.0, 187500.0, 187500.0, -0.038, -1.028, -0.002, 192.0, 127.0, 104.0, 111.5, 112.0, 127.5, 120.0, 0.0, 0.0, 0.0, 1.639999273237188E9, 0.0, 2021-12-20 12:21:13.237
232.0, 187500.0, 187500.0, 187500.0, 187500.0, 187500.0, 187500.0, 187500.0, 187500.0, 187500.0, 187500.0, 187500.0, 187500.0, 16545.23063245185, 187500.0, 187500.0, 187500.0, -0.038, -1.028, -0.002, 192.0, 0.0, 0.0, 0.0, 0.0, 0.0, 0.0, 0.0, 0.0, 0.0, 1.639999273245972E9, 0.0, 2021-12-20 12:21:13.245
234.0, 187500.0, 187500.0, 187500.0, 187500.0, 187500.0, 187500.0, 187500.0, 187500.0, 187500.0, 187500.0, 187500.0, 187500.0, 16465.8372361466, 187500.0, 187500.0, 187500.0, -0.038, -1.028, -0.002, 192.0, 0.0, 0.0, 0.0, 0.0, 0.0, 0.0, 0.0, 0.0, 0.0, 1.639999273253983E9, 0.0, 2021-12-20 12:21:13.253
236.0, 187500.0, 187500.0, 187500.0, 187500.0, 187500.0, 187500.0, 187500.0, 187500.0, 187500.0, 187500.0, 187500.0, 187500.0, 16399.47490685879, 187500.0, 187500.0, 187500.0, -0.038, -1.028, -0.002, 192.0, 0.0, 0.0, 0.0, 0.0, 0.0, 0.0, 0.0, 0.0, 0.0, 1.639999273260344E9, 0.0, 2021-12-20 12:21:13.260
238.0, 187500.0, 187500.0, 187500.0, 187500.0, 187500.0, 187500.0, 187500.0, 187500.0, 187500.0, 187500.0, 187500.0, 187500.0, 16315.61116166248, 187500.0, 187500.0, 187500.0, -0.038, -1.028, -0.002, 192.0, 0.0, 0.0, 0.0, 0.0, 0.0, 0.0, 0.0, 0.0, 0.0, 1.639999273266855E9, 0.0, 2021-12-20 12:21:13.266
240.0, 187500.0, 187500.0, 187500.0, 187500.0, 187500.0, 187500.0, 187500.0, 187500.0, 187500.0, 187500.0, 187500.0, 187500.0, 16263.844521503988, 187500.0, 187500.0, 187500.0, -0.034, -1.032, -0.004, 192.0, 127.0, 120.0, 111.5, 96.0, 127.5, 112.0, 0.0, 0.0, 0.0, 1.639999273283674E9, 0.0, 2021-12-20 12:21:13.283
242.0, 187500.0, 187500.0, 187500.0, 187500.0, 187500.0, 187500.0, 187500.0, 187500.0, 187500.0, 187500.0, 187500.0, 187500.0, 16262.190492414296, 187500.0, 187500.0, 187500.0, -0.034, -1.032, -0.004, 192.0, 0.0, 0.0, 0.0, 0.0, 0.0, 0.0, 0.0, 0.0, 0.0, 1.639999273290006E9, 0.0, 2021-12-20 12:21:13.290
244.0, 187500.0, 187500.0, 187500.0, 187500.0, 187500.0, 187500.0, 187500.0, 187500.0, 187500.0, 187500.0, 187500.0, 187500.0, 16235.971896168221, 187500.0, 187500.0, 187500.0, -0.034, -1.032, -0.004, 192.0, 0.0, 0.0, 0.0, 0.0, 0.0, 0.0, 0.0, 0.0, 0.0, 1.639999273297576E9, 0.0, 2021-12-20 12:21:13.297
246.0, 187500.0, 187500.0, 187500.0, 187500.0, 187500.0, 187500.0, 187500.0, 187500.0, 187500.0, 187500.0, 187500.0, 187500.0, 16203.830087641489, 187500.0, 187500.0, 187500.0, -0.034, -1.032, -0.004, 192.0, 0.0, 0.0, 0.0, 0.0, 0.0, 0.0, 0.0, 0.0, 0.0, 1.639999273305759E9, 0.0, 2021-12-20 12:21:13.305
248.0, 187500.0, 187500.0, 187500.0, 187500.0, 187500.0, 187500.0, 187500.0, 187500.0, 187500.0, 187500.0, 187500.0, 187500.0, 16162.658174354814, 187500.0, 187500.0, 187500.0, -0.034, -1.032, -0.004, 192.0, 0.0, 0.0, 0.0, 0.0, 0.0, 0.0, 0.0, 0.0, 0.0, 1.639999273315309E9, 0.0, 2021-12-20 12:21:13.315
250.0, 187500.0, 187500.0, 187500.0, 187500.0, 187500.0, 187500.0, 187500.0, 187500.0, 187500.0, 187500.0, 187500.0, 187500.0, 16078.034469847022, 187500.0, 187500.0, 187500.0, -0.036000000000000004, -1.032, -0.006, 192.0, 127.0, 104.0, 111.5, 96.0, 127.5, 96.0, 0.0, 0.0, 0.0, 1.639999273320694E9, 0.0, 2021-12-20 12:21:13.320
252.0, 187500.0, 187500.0, 187500.0, 187500.0, 187500.0, 187500.0, 187500.0, 187500.0, 187500.0, 187500.0, 187500.0, 187500.0, 16071.619519188347, 187500.0, 187500.0, 187500.0, -0.036000000000000004, -1.032, -0.006, 192.0, 0.0, 0.0, 0.0, 0.0, 0.0, 0.0, 0.0, 0.0, 0.0, 1.639999273328604E9, 0.0, 2021-12-20 12:21:13.328
254.0, 187500.0, 187500.0, 187500.0, 187500.0, 187500.0, 187500.0, 187500.0, 187500.0, 187500.0, 187500.0, 187500.0, 187500.0, 16088.338624040918, 187500.0, 187500.0, 187500.0, -0.036000000000000004, -1.032, -0.006, 192.0, 0.0, 0.0, 0.0, 0.0, 0.0, 0.0, 0.0, 0.0, 0.0, 1.639999273335093E9, 0.0, 2021-12-20 12:21:13.335
0.0, 187500.0, 187500.0, 187500.0, 187500.0, 187500.0, 187500.0, 187500.0, 187500.0, 187500.0, 187500.0, 187500.0, 187500.0, 16058.119065537343, 187500.0, 187500.0, 187500.0, -0.036000000000000004, -1.032, -0.006, 192.0, 0.0, 0.0, 0.0, 0.0, 0.0, 0.0, 0.0, 0.0, 0.0, 1.639999273344199E9, 0.0, 2021-12-20 12:21:13.344
2.0, 187500.0, 187500.0, 187500.0, 187500.0, 187500.0, 187500.0, 187500.0, 187500.0, 187500.0, 187500.0, 187500.0, 187500.0, 15984.246550112553, 187500.0, 187500.0, 187500.0, -0.036000000000000004, -1.032, -0.006, 192.0, 0.0, 0.0, 0.0, 0.0, 0.0, 0.0, 0.0, 0.0, 0.0, 1.639999273350798E9, 0.0, 2021-12-20 12:21:13.350
4.0, 187500.0, 187500.0, 187500.0, 187500.0, 187500.0, 187500.0, 187500.0, 187500.0, 187500.0, 187500.0, 187500.0, 187500.0, 15891.307996667385, 187500.0, 187500.0, 187500.0, -0.036000000000000004, -1.033, -0.004, 192.0, 127.0, 112.0, 111.5, 88.0, 127.5, 120.0, 0.0, 0.0, 0.0, 1.639999273358078E9, 0.0, 2021-12-20 12:21:13.358
6.0, 187500.0, 187500.0, 187500.0, 187500.0, 187500.0, 187500.0, 187500.0, 187500.0, 187500.0, 187500.0, 187500.0, 187500.0, 15829.326609292819, 187500.0, 187500.0, 187500.0, -0.036000000000000004, -1.033, -0.004, 192.0, 0.0, 0.0, 0.0, 0.0, 0.0, 0.0, 0.0, 0.0, 0.0, 1.639999273365756E9, 0.0, 2021-12-20 12:21:13.365
8.0, 187500.0, 187500.0, 187500.0, 187500.0, 187500.0, 187500.0, 187500.0, 187500.0, 187500.0, 187500.0, 187500.0, 187500.0, 15762.472541626996, 187500.0, 187500.0, 187500.0, -0.036000000000000004, -1.033, -0.004, 192.0, 0.0, 0.0, 0.0, 0.0, 0.0, 0.0, 0.0, 0.0, 0.0, 1.639999273373003E9, 0.0, 2021-12-20 12:21:13.373
10.0, 187500.0, 187500.0, 187500.0, 187500.0, 187500.0, 187500.0, 187500.0, 187500.0, 187500.0, 187500.0, 187500.0, 187500.0, 15659.833331088226, 187500.0, 187500.0, 187500.0, -0.036000000000000004, -1.033, -0.004, 192.0, 0.0, 0.0, 0.0, 0.0, 0.0, 0.0, 0.0, 0.0, 0.0, 1.639999273381425E9, 0.0, 2021-12-20 12:21:13.381
12.0, 187500.0, 187500.0, 187500.0, 187500.0, 187500.0, 187500.0, 187500.0, 187500.0, 187500.0, 187500.0, 187500.0, 187500.0, 15568.1241235881, 187500.0, 187500.0, 187500.0, -0.036000000000000004, -1.033, -0.004, 192.0, 0.0, 0.0, 0.0, 0.0, 0.0, 0.0, 0.0, 0.0, 0.0, 1.639999273388529E9, 0.0, 2021-12-20 12:21:13.388
14.0, 187500.0, 187500.0, 187500.0, 187500.0, 187500.0, 187500.0, 187500.0, 187500.0, 187500.0, 187500.0, 187500.0, 187500.0, 15450.352782053089, 187500.0, 187500.0, 187500.0, -0.03900000000000001, -1.0325, -0.004, 192.0, 127.0, 88.0, 111.5, 96.0, 127.5, 112.0, 0.0, 0.0, 0.0, 1.639999273402033E9, 0.0, 2021-12-20 12:21:13.402
16.0, 187500.0, 187500.0, 187500.0, 187500.0, 187500.0, 187500.0, 187500.0, 187500.0, 187500.0, 187500.0, 187500.0, 187500.0, 15333.69902774084, 187500.0, 187500.0, 187500.0, -0.03900000000000001, -1.0325, -0.004, 192.0, 0.0, 0.0, 0.0, 0.0, 0.0, 0.0, 0.0, 0.0, 0.0, 1.639999273410729E9, 0.0, 2021-12-20 12:21:13.410
18.0, 187500.0, 187500.0, 187500.0, 187500.0, 187500.0, 187500.0, 187500.0, 187500.0, 187500.0, 187500.0, 187500.0, 187500.0, 15255.803198314095, 187500.0, 187500.0, 187500.0, -0.03900000000000001, -1.0325, -0.004, 192.0, 0.0, 0.0, 0.0, 0.0, 0.0, 0.0, 0.0, 0.0, 0.0, 1.639999273418682E9, 0.0, 2021-12-20 12:21:13.418
20.0, 187500.0, 187500.0, 187500.0, 187500.0, 187500.0, 187500.0, 187500.0, 187500.0, 187500.0, 187500.0, 187500.0, 187500.0, 15197.845124941485, 187500.0, 187500.0, 187500.0, -0.03900000000000001, -1.0325, -0.004, 192.0, 0.0, 0.0, 0.0, 0.0, 0.0, 0.0, 0.0, 0.0, 0.0, 1.639999273425107E9, 0.0, 2021-12-20 12:21:13.425
22.0, 187500.0, 187500.0, 187500.0, 187500.0, 187500.0, 187500.0, 187500.0, 187500.0, 187500.0, 187500.0, 187500.0, 187500.0, 15137.80833933453, 187500.0, 187500.0, 187500.0, -0.03900000000000001, -1.0325, -0.004, 192.0, 0.0, 0.0, 0.0, 0.0, 0.0, 0.0, 0.0, 0.0, 0.0, 1.639999273432737E9, 0.0, 2021-12-20 12:21:13.432
24.0, 187500.0, 187500.0, 187500.0, 187500.0, 187500.0, 187500.0, 187500.0, 187500.0, 187500.0, 187500.0, 187500.0, 187500.0, 15086.13110615386, 187500.0, 187500.0, 187500.0, -0.043500000000000004, -1.03025, -0.005, 192.0, 127.0, 64.0, 111.5, 112.0, 127.5, 104.0, 0.0, 0.0, 0.0, 1.639999273440737E9, 0.0, 2021-12-20 12:21:13.440
26.0, 187500.0, 187500.0, 187500.0, 187500.0, 187500.0, 187500.0, 187500.0, 187500.0, 187500.0, 187500.0, 187500.0, 187500.0, 15054.324573793958, 187500.0, 187500.0, 187500.0, -0.043500000000000004, -1.03025, -0.005, 192.0, 0.0, 0.0, 0.0, 0.0, 0.0, 0.0, 0.0, 0.0, 0.0, 1.639999273447687E9, 0.0, 2021-12-20 12:21:13.447
28.0, 187500.0, 187500.0, 187500.0, 187500.0, 187500.0, 187500.0, 187500.0, 187500.0, 187500.0, 187500.0, 187500.0, 187500.0, 15052.670544704264, 187500.0, 187500.0, 187500.0, -0.043500000000000004, -1.03025, -0.005, 192.0, 0.0, 0.0, 0.0, 0.0, 0.0, 0.0, 0.0, 0.0, 0.0, 1.639999273454305E9, 0.0, 2021-12-20 12:21:13.454
30.0, 187500.0, 187500.0, 187500.0, 187500.0, 187500.0, 187500.0, 187500.0, 187500.0, 187500.0, 187500.0, 187500.0, 187500.0, 15036.5996404409, 187500.0, 187500.0, 187500.0, -0.043500000000000004, -1.03025, -0.005, 192.0, 0.0, 0.0, 0.0, 0.0, 0.0, 0.0, 0.0, 0.0, 0.0, 1.639999273462687E9, 0.0, 2021-12-20 12:21:13.462
32.0, 187500.0, 187500.0, 187500.0, 187500.0, 187500.0, 187500.0, 187500.0, 187500.0, 187500.0, 187500.0, 187500.0, 187500.0, 14994.690119587198, 187500.0, 187500.0, 187500.0, -0.043500000000000004, -1.03025, -0.005, 192.0, 0.0, 0.0, 0.0, 0.0, 0.0, 0.0, 0.0, 0.0, 0.0, 1.639999273471309E9, 0.0, 2021-12-20 12:21:13.471
34.0, 187500.0, 187500.0, 187500.0, 187500.0, 187500.0, 187500.0, 187500.0, 187500.0, 187500.0, 187500.0, 187500.0, 187500.0, 14974.752363533064, 187500.0, 187500.0, 187500.0, -0.04675, -1.033125, -0.0075, 192.0, 127.0, 56.0, 111.5, 80.0, 127.5, 88.0, 0.0, 0.0, 0.0, 1.639999273477367E9, 0.0, 2021-12-20 12:21:13.477
36.0, 187500.0, 187500.0, 187500.0, 187500.0, 187500.0, 187500.0, 187500.0, 187500.0, 187500.0, 187500.0, 187500.0, 187500.0, 14991.717337574642, 187500.0, 187500.0, 187500.0, -0.04675, -1.033125, -0.0075, 192.0, 0.0, 0.0, 0.0, 0.0, 0.0, 0.0, 0.0, 0.0, 0.0, 1.639999273485011E9, 0.0, 2021-12-20 12:21:13.485
38.0, 187500.0, 187500.0, 187500.0, 187500.0, 187500.0, 187500.0, 187500.0, 187500.0, 187500.0, 187500.0, 187500.0, 187500.0, 14989.124535217827, 187500.0, 187500.0, 187500.0, -0.04675, -1.033125, -0.0075, 192.0, 0.0, 0.0, 0.0, 0.0, 0.0, 0.0, 0.0, 0.0, 0.0, 1.639999273493935E9, 0.0, 2021-12-20 12:21:13.493
40.0, 187500.0, 187500.0, 187500.0, 187500.0, 187500.0, 187500.0, 187500.0, 187500.0, 187500.0, 187500.0, 187500.0, 187500.0, 14953.026467922506, 187500.0, 187500.0, 187500.0, -0.04675, -1.033125, -0.0075, 192.0, 0.0, 0.0, 0.0, 0.0, 0.0, 0.0, 0.0, 0.0, 0.0, 1.639999273500914E9, 0.0, 2021-12-20 12:21:13.500
42.0, 187500.0, 187500.0, 187500.0, 187500.0, 187500.0, 187500.0, 187500.0, 187500.0, 187500.0, 187500.0, 187500.0, 187500.0, 14889.23458924706, 187500.0, 187500.0, 187500.0, -0.04675, -1.033125, -0.0075, 192.0, 0.0, 0.0, 0.0, 0.0, 0.0, 0.0, 0.0, 0.0, 0.0, 1.639999273507567E9, 0.0, 2021-12-20 12:21:13.507
44.0, 187500.0, 187500.0, 187500.0, 187500.0, 187500.0, 187500.0, 187500.0, 187500.0, 187500.0, 187500.0, 187500.0, 187500.0, 14815.362073822269, 187500.0, 187500.0, 187500.0, -0.04675, -1.033125, -0.0075, 192.0, 0.0, 0.0, 0.0, 0.0, 0.0, 0.0, 0.0, 0.0, 0.0, 1.639999273514792E9, 0.0, 2021-12-20 12:21:13.514
46.0, 187500.0, 187500.0, 187500.0, 187500.0, 187500.0, 187500.0, 187500.0, 187500.0, 187500.0, 187500.0, 187500.0, 187500.0, 14721.507098854436, 187500.0, 187500.0, 187500.0, -0.04, -1.036, -0.006, 192.0, 127.0, 96.0, 111.5, 80.0, 127.5, 104.0, 0.0, 0.0, 0.0, 1.639999273529897E9, 0.0, 2021-12-20 12:21:13.529
48.0, 187500.0, 187500.0, 187500.0, 187500.0, 187500.0, 187500.0, 187500.0, 187500.0, 187500.0, 187500.0, 187500.0, 187500.0, 14652.551967209813, 187500.0, 187500.0, 187500.0, -0.04, -1.036, -0.006, 192.0, 0.0, 0.0, 0.0, 0.0, 0.0, 0.0, 0.0, 0.0, 0.0, 1.639999273538126E9, 0.0, 2021-12-20 12:21:13.538
50.0, 187500.0, 187500.0, 187500.0, 187500.0, 187500.0, 187500.0, 187500.0, 187500.0, 187500.0, 187500.0, 187500.0, 187500.0, 14577.137181417607, 187500.0, 187500.0, 187500.0, -0.04, -1.036, -0.006, 192.0, 0.0, 0.0, 0.0, 0.0, 0.0, 0.0, 0.0, 0.0, 0.0, 1.639999273545258E9, 0.0, 2021-12-20 12:21:13.545
52.0, 187500.0, 187500.0, 187500.0, 187500.0, 187500.0, 187500.0, 187500.0, 187500.0, 187500.0, 187500.0, 187500.0, 187500.0, 14511.132480041086, 187500.0, 187500.0, 187500.0, -0.04, -1.036, -0.006, 192.0, 0.0, 0.0, 0.0, 0.0, 0.0, 0.0, 0.0, 0.0, 0.0, 1.639999273553236E9, 0.0, 2021-12-20 12:21:13.553
54.0, 187500.0, 187500.0, 187500.0, 187500.0, 187500.0, 187500.0, 187500.0, 187500.0, 187500.0, 187500.0, 187500.0, 187500.0, 14431.359104080095, 187500.0, 187500.0, 187500.0, -0.04, -1.036, -0.006, 192.0, 0.0, 0.0, 0.0, 0.0, 0.0, 0.0, 0.0, 0.0, 0.0, 1.639999273560323E9, 0.0, 2021-12-20 12:21:13.560
56.0, 187500.0, 187500.0, 187500.0, 187500.0, 187500.0, 187500.0, 187500.0, 187500.0, 187500.0, 187500.0, 187500.0, 187500.0, 14354.469103153839, 187500.0, 187500.0, 187500.0, -0.038, -1.034, -0.002, 192.0, 127.0, 104.0, 111.5, 88.0, 127.5, 120.0, 0.0, 0.0, 0.0, 1.639999273568956E9, 0.0, 2021-12-20 12:21:13.568
58.0, 187500.0, 187500.0, 187500.0, 187500.0, 187500.0, 187500.0, 187500.0, 187500.0, 187500.0, 187500.0, 187500.0, 187500.0, 14247.381895468461, 187500.0, 187500.0, 187500.0, -0.038, -1.034, -0.002, 192.0, 0.0, 0.0, 0.0, 0.0, 0.0, 0.0, 0.0, 0.0, 0.0, 1.639999273576313E9, 0.0, 2021-12-20 12:21:13.576
60.0, 187500.0, 187500.0, 187500.0, 187500.0, 187500.0, 187500.0, 187500.0, 187500.0, 187500.0, 187500.0, 187500.0, 187500.0, 14206.254685670698, 187500.0, 187500.0, 187500.0, -0.038, -1.034, -0.002, 192.0, 0.0, 0.0, 0.0, 0.0, 0.0, 0.0, 0.0, 0.0, 0.0, 1.639999273582905E9, 0.0, 2021-12-20 12:21:13.582
62.0, 187500.0, 187500.0, 187500.0, 187500.0, 187500.0, 187500.0, 187500.0, 187500.0, 187500.0, 187500.0, 187500.0, 187500.0, 14212.580229351548, 187500.0, 187500.0, 187500.0, -0.038, -1.034, -0.002, 192.0, 0.0, 0.0, 0.0, 0.0, 0.0, 0.0, 0.0, 0.0, 0.0, 1.639999273589572E9, 0.0, 2021-12-20 12:21:13.589
64.0, 187500.0, 187500.0, 187500.0, 187500.0, 187500.0, 187500.0, 187500.0, 187500.0, 187500.0, 187500.0, 187500.0, 187500.0, 14210.613275839482, 187500.0, 187500.0, 187500.0, -0.038, -1.034, -0.002, 192.0, 0.0, 0.0, 0.0, 0.0, 0.0, 0.0, 0.0, 0.0, 0.0, 1.639999273598415E9, 0.0, 2021-12-20 12:21:13.598
66.0, 187500.0, 187500.0, 187500.0, 187500.0, 187500.0, 187500.0, 187500.0, 187500.0, 187500.0, 187500.0, 187500.0, 187500.0, 14168.122609629943, 187500.0, 187500.0, 187500.0, -0.04, -1.028, 0.002, 192.0, 127.0, 96.0, 111.5, 112.0, 0.0, 8.0, 0.0, 0.0, 0.0, 1.639999273607911E9, 0.0, 2021-12-20 12:21:13.607
68.0, 187500.0, 187500.0, 187500.0, 187500.0, 187500.0, 187500.0, 187500.0, 187500.0, 187500.0, 187500.0, 187500.0, 187500.0, 14111.259771735642, 187500.0, 187500.0, 187500.0, -0.04, -1.028, 0.002, 192.0, 0.0, 0.0, 0.0, 0.0, 0.0, 0.0, 0.0, 0.0, 0.0, 1.639999273612153E9, 0.0, 2021-12-20 12:21:13.612
70.0, 187500.0, 187500.0, 187500.0, 187500.0, 187500.0, 187500.0, 187500.0, 187500.0, 187500.0, 187500.0, 187500.0, 187500.0, 14088.773916813603, 187500.0, 187500.0, 187500.0, -0.04, -1.028, 0.002, 192.0, 0.0, 0.0, 0.0, 0.0, 0.0, 0.0, 0.0, 0.0, 0.0, 1.639999273620298E9, 0.0, 2021-12-20 12:21:13.620
72.0, 187500.0, 187500.0, 187500.0, 187500.0, 187500.0, 187500.0, 187500.0, 187500.0, 187500.0, 187500.0, 187500.0, 187500.0, 14071.227797416186, 187500.0, 187500.0, 187500.0, -0.04, -1.028, 0.002, 192.0, 0.0, 0.0, 0.0, 0.0, 0.0, 0.0, 0.0, 0.0, 0.0, 1.639999273628523E9, 0.0, 2021-12-20 12:21:13.628
74.0, 187500.0, 187500.0, 187500.0, 187500.0, 187500.0, 187500.0, 187500.0, 187500.0, 187500.0, 187500.0, 187500.0, 187500.0, 14004.798412895014, 187500.0, 187500.0, 187500.0, -0.04, -1.028, 0.002, 192.0, 0.0, 0.0, 0.0, 0.0, 0.0, 0.0, 0.0, 0.0, 0.0, 1.639999273636394E9, 0.0, 2021-12-20 12:21:13.636
76.0, 187500.0, 187500.0, 187500.0, 187500.0, 187500.0, 187500.0, 187500.0, 187500.0, 187500.0, 187500.0, 187500.0, 187500.0, 13945.923917999735, 187500.0, 187500.0, 187500.0, -0.04, -1.034, 0.0, 192.0, 127.0, 96.0, 111.5, 88.0, 0.0, 0.0, 0.0, 0.0, 0.0, 1.639999273649834E9, 0.0, 2021-12-20 12:21:13.649
78.0, 187500.0, 187500.0, 187500.0, 187500.0, 187500.0, 187500.0, 187500.0, 187500.0, 187500.0, 187500.0, 187500.0, 187500.0, 13904.930818668703, 187500.0, 187500.0, 187500.0, -0.04, -1.034, 0.0, 192.0, 0.0, 0.0, 0.0, 0.0, 0.0, 0.0, 0.0, 0.0, 0.0, 1.639999273658288E9, 0.0, 2021-12-20 12:21:13.658
80.0, 187500.0, 187500.0, 187500.0, 187500.0, 187500.0, 187500.0, 187500.0, 187500.0, 187500.0, 187500.0, 187500.0, 187500.0, 13844.804626083927, 187500.0, 187500.0, 187500.0, -0.04, -1.034, 0.0, 192.0, 0.0, 0.0, 0.0, 0.0, 0.0, 0.0, 0.0, 0.0, 0.0, 1.639999273667096E9, 0.0, 2021-12-20 12:21:13.667
82.0, 187500.0, 187500.0, 187500.0, 187500.0, 187500.0, 187500.0, 187500.0, 187500.0, 187500.0, 187500.0, 187500.0, 187500.0, 13791.339253346832, 187500.0, 187500.0, 187500.0, -0.04, -1.034, 0.0, 192.0, 0.0, 0.0, 0.0, 0.0, 0.0, 0.0, 0.0, 0.0, 0.0, 1.639999273673354E9, 0.0, 2021-12-20 12:21:13.673
84.0, 187500.0, 187500.0, 187500.0, 187500.0, 187500.0, 187500.0, 187500.0, 187500.0, 187500.0, 187500.0, 187500.0, 187500.0, 13767.601700735297, 187500.0, 187500.0, 187500.0, -0.04, -1.034, 0.0, 192.0, 0.0, 0.0, 0.0, 0.0, 0.0, 0.0, 0.0, 0.0, 0.0, 1.639999273680447E9, 0.0, 2021-12-20 12:21:13.680
86.0, 187500.0, 187500.0, 187500.0, 187500.0, 187500.0, 187500.0, 187500.0, 187500.0, 187500.0, 187500.0, 187500.0, 187500.0, 13748.066276081358, 187500.0, 187500.0, 187500.0, -0.04, -1.036, -0.006, 192.0, 127.0, 96.0, 111.5, 80.0, 127.5, 104.0, 0.0, 0.0, 0.0, 1.639999273687525E9, 0.0, 2021-12-20 12:21:13.687
88.0, 187500.0, 187500.0, 187500.0, 187500.0, 187500.0, 187500.0, 187500.0, 187500.0, 187500.0, 187500.0, 187500.0, 187500.0, 13738.499729454486, 187500.0, 187500.0, 187500.0, -0.04, -1.036, -0.006, 192.0, 0.0, 0.0, 0.0, 0.0, 0.0, 0.0, 0.0, 0.0, 0.0, 1.639999273695752E9, 0.0, 2021-12-20 12:21:13.695
90.0, 187500.0, 187500.0, 187500.0, 187500.0, 187500.0, 187500.0, 187500.0, 187500.0, 187500.0, 187500.0, 187500.0, 187500.0, 13731.57068867334, 187500.0, 187500.0, 187500.0, -0.04, -1.036, -0.006, 192.0, 0.0, 0.0, 0.0, 0.0, 0.0, 0.0, 0.0, 0.0, 0.0, 1.639999273702702E9, 0.0, 2021-12-20 12:21:13.702
92.0, 187500.0, 187500.0, 187500.0, 187500.0, 187500.0, 187500.0, 187500.0, 187500.0, 187500.0, 187500.0, 187500.0, 187500.0, 13801.285779629443, 187500.0, 187500.0, 187500.0, -0.04, -1.036, -0.006, 192.0, 0.0, 0.0, 0.0, 0.0, 0.0, 0.0, 0.0, 0.0, 0.0, 1.639999273710238E9, 0.0, 2021-12-20 12:21:13.710
94.0, 187500.0, 187500.0, 187500.0, 187500.0, 187500.0, 187500.0, 187500.0, 187500.0, 187500.0, 187500.0, 187500.0, 187500.0, 13893.665539463227, 187500.0, 187500.0, 187500.0, -0.04, -1.036, -0.006, 192.0, 0.0, 0.0, 0.0, 0.0, 0.0, 0.0, 0.0, 0.0, 0.0, 1.639999273718618E9, 0.0, 2021-12-20 12:21:13.718
96.0, 187500.0, 187500.0, 187500.0, 187500.0, 187500.0, 187500.0, 187500.0, 187500.0, 187500.0, 187500.0, 187500.0, 187500.0, 13987.207590008687, 187500.0, 187500.0, 187500.0, -0.039, -1.0350000000000001, -0.007, 192.0, 127.0, 104.0, 111.5, 88.0, 127.5, 96.0, 0.0, 0.0, 0.0, 1.639999273726898E9, 0.0, 2021-12-20 12:21:13.726
98.0, 187500.0, 187500.0, 187500.0, 187500.0, 187500.0, 187500.0, 187500.0, 187500.0, 187500.0, 187500.0, 187500.0, 187500.0, 14069.909044493324, 187500.0, 187500.0, 187500.0, -0.039, -1.0350000000000001, -0.007, 192.0, 0.0, 0.0, 0.0, 0.0, 0.0, 0.0, 0.0, 0.0, 0.0, 1.639999273734642E9, 0.0, 2021-12-20 12:21:13.734
100.0, 187500.0, 187500.0, 187500.0, 187500.0, 187500.0, 187500.0, 187500.0, 187500.0, 187500.0, 187500.0, 187500.0, 187500.0, 14166.80385670708, 187500.0, 187500.0, 187500.0, -0.039, -1.0350000000000001, -0.007, 192.0, 0.0, 0.0, 0.0, 0.0, 0.0, 0.0, 0.0, 0.0, 0.0, 1.639999273742146E9, 0.0, 2021-12-20 12:21:13.742
102.0, 187500.0, 187500.0, 187500.0, 187500.0, 187500.0, 187500.0, 187500.0, 187500.0, 187500.0, 187500.0, 187500.0, 187500.0, 14221.47622364476, 187500.0, 187500.0, 187500.0, -0.039, -1.0350000000000001, -0.007, 192.0, 0.0, 0.0, 0.0, 0.0, 0.0, 0.0, 0.0, 0.0, 0.0, 1.639999273748223E9, 0.0, 2021-12-20 12:21:13.748
104.0, 187500.0, 187500.0, 187500.0, 187500.0, 187500.0, 187500.0, 187500.0, 187500.0, 187500.0, 187500.0, 187500.0, 187500.0, 14297.516858281715, 187500.0, 187500.0, 187500.0, -0.039, -1.0350000000000001, -0.007, 192.0, 0.0, 0.0, 0.0, 0.0, 0.0, 0.0, 0.0, 0.0, 0.0, 1.639999273756525E9, 0.0, 2021-12-20 12:21:13.756
106.0, 187500.0, 187500.0, 187500.0, 187500.0, 187500.0, 187500.0, 187500.0, 187500.0, 187500.0, 187500.0, 187500.0, 187500.0, 14393.092917572609, 187500.0, 187500.0, 187500.0, -0.037500000000000006, -1.0395, -0.0085, 192.0, 127.0, 112.0, 111.5, 48.0, 127.5, 88.0, 0.0, 0.0, 0.0, 1.63999927376762E9, 0.0, 2021-12-20 12:21:13.767
108.0, 187500.0, 187500.0, 187500.0, 187500.0, 187500.0, 187500.0, 187500.0, 187500.0, 187500.0, 187500.0, 187500.0, 187500.0, 14537.708704198445, 187500.0, 187500.0, 187500.0, -0.037500000000000006, -1.0395, -0.0085, 192.0, 0.0, 0.0, 0.0, 0.0, 0.0, 0.0, 0.0, 0.0, 0.0, 1.63999927377708E9, 0.0, 2021-12-20 12:21:13.777
110.0, 187500.0, 187500.0, 187500.0, 187500.0, 187500.0, 187500.0, 187500.0, 187500.0, 187500.0, 187500.0, 187500.0, 187500.0, 14631.161347766085, 187500.0, 187500.0, 187500.0, -0.037500000000000006, -1.0395, -0.0085, 192.0, 0.0, 0.0, 0.0, 0.0, 0.0, 0.0, 0.0, 0.0, 0.0, 1.639999273785125E9, 0.0, 2021-12-20 12:21:13.785
112.0, 187500.0, 187500.0, 187500.0, 187500.0, 187500.0, 187500.0, 187500.0, 187500.0, 187500.0, 187500.0, 187500.0, 187500.0, 14668.220540072984, 187500.0, 187500.0, 187500.0, -0.037500000000000006, -1.0395, -0.0085, 192.0, 0.0, 0.0, 0.0, 0.0, 0.0, 0.0, 0.0, 0.0, 0.0, 1.639999273793797E9, 0.0, 2021-12-20 12:21:13.793
114.0, 187500.0, 187500.0, 187500.0, 187500.0, 187500.0, 187500.0, 187500.0, 187500.0, 187500.0, 187500.0, 187500.0, 187500.0, 14680.871627434688, 187500.0, 187500.0, 187500.0, -0.037500000000000006, -1.0395, -0.0085, 192.0, 0.0, 0.0, 0.0, 0.0, 0.0, 0.0, 0.0, 0.0, 0.0, 1.63999927380036E9, 0.0, 2021-12-20 12:21:13.800
116.0, 187500.0, 187500.0, 187500.0, 187500.0, 187500.0, 187500.0, 187500.0, 187500.0, 187500.0, 187500.0, 187500.0, 187500.0, 14687.554799026824, 187500.0, 187500.0, 187500.0, -0.035750000000000004, -1.03875, -0.00725, 192.0, 127.0, 120.0, 111.5, 72.0, 127.5, 104.0, 0.0, 0.0, 0.0, 1.639999273808018E9, 0.0, 2021-12-20 12:21:13.808
118.0, 187500.0, 187500.0, 187500.0, 187500.0, 187500.0, 187500.0, 187500.0, 187500.0, 187500.0, 187500.0, 187500.0, 187500.0, 14692.874514207188, 187500.0, 187500.0, 187500.0, -0.035750000000000004, -1.03875, -0.00725, 192.0, 0.0, 0.0, 0.0, 0.0, 0.0, 0.0, 0.0, 0.0, 0.0, 1.639999273815936E9, 0.0, 2021-12-20 12:21:13.815
120.0, 187500.0, 187500.0, 187500.0, 187500.0, 187500.0, 187500.0, 187500.0, 187500.0, 187500.0, 187500.0, 187500.0, 187500.0, 14644.035952572342, 187500.0, 187500.0, 187500.0, -0.035750000000000004, -1.03875, -0.00725, 192.0, 0.0, 0.0, 0.0, 0.0, 0.0, 0.0, 0.0, 0.0, 0.0, 1.63999927382346E9, 0.0, 2021-12-20 12:21:13.823
122.0, 187500.0, 187500.0, 187500.0, 187500.0, 187500.0, 187500.0, 187500.0, 187500.0, 187500.0, 187500.0, 187500.0, 187500.0, 14593.185733936518, 187500.0, 187500.0, 187500.0, -0.035750000000000004, -1.03875, -0.00725, 192.0, 0.0, 0.0, 0.0, 0.0, 0.0, 0.0, 0.0, 0.0, 0.0, 1.639999273829431E9, 0.0, 2021-12-20 12:21:13.829
124.0, 187500.0, 187500.0, 187500.0, 187500.0, 187500.0, 187500.0, 187500.0, 187500.0, 187500.0, 187500.0, 187500.0, 187500.0, 14527.739826171379, 187500.0, 187500.0, 187500.0, -0.035750000000000004, -1.03875, -0.00725, 192.0, 0.0, 0.0, 0.0, 0.0, 0.0, 0.0, 0.0, 0.0, 0.0, 1.639999273837227E9, 0.0, 2021-12-20 12:21:13.837
126.0, 187500.0, 187500.0, 187500.0, 187500.0, 187500.0, 187500.0, 187500.0, 187500.0, 187500.0, 187500.0, 187500.0, 187500.0, 14485.159752984018, 187500.0, 187500.0, 187500.0, -0.037875000000000006, -1.038375, -0.008625, 192.0, 127.0, 96.0, 111.5, 72.0, 127.5, 88.0, 0.0, 0.0, 0.0, 1.639999273845666E9, 0.0, 2021-12-20 12:21:13.845
128.0, 187500.0, 187500.0, 187500.0, 187500.0, 187500.0, 187500.0, 187500.0, 187500.0, 187500.0, 187500.0, 187500.0, 187500.0, 14482.00815701582, 187500.0, 187500.0, 187500.0, -0.037875000000000006, -1.038375, -0.008625, 192.0, 0.0, 0.0, 0.0, 0.0, 0.0, 0.0, 0.0, 0.0, 0.0, 1.639999273853131E9, 0.0, 2021-12-20 12:21:13.853
130.0, 187500.0, 187500.0, 187500.0, 187500.0, 187500.0, 187500.0, 187500.0, 187500.0, 187500.0, 187500.0, 187500.0, 187500.0, 14458.158845682008, 187500.0, 187500.0, 187500.0, -0.037875000000000006, -1.038375, -0.008625, 192.0, 0.0, 0.0, 0.0, 0.0, 0.0, 0.0, 0.0, 0.0, 0.0, 1.639999273860348E9, 0.0, 2021-12-20 12:21:13.860
132.0, 187500.0, 187500.0, 187500.0, 187500.0, 187500.0, 187500.0, 187500.0, 187500.0, 187500.0, 187500.0, 187500.0, 187500.0, 14480.354127926128, 187500.0, 187500.0, 187500.0, -0.037875000000000006, -1.038375, -0.008625, 192.0, 0.0, 0.0, 0.0, 0.0, 0.0, 0.0, 0.0, 0.0, 0.0, 1.639999273867898E9, 0.0, 2021-12-20 12:21:13.867
134.0, 187500.0, 187500.0, 187500.0, 187500.0, 187500.0, 187500.0, 187500.0, 187500.0, 187500.0, 187500.0, 187500.0, 187500.0, 14507.891477095065, 187500.0, 187500.0, 187500.0, -0.037875000000000006, -1.038375, -0.008625, 192.0, 0.0, 0.0, 0.0, 0.0, 0.0, 0.0, 0.0, 0.0, 0.0, 1.639999273874975E9, 0.0, 2021-12-20 12:21:13.874
136.0, 187500.0, 187500.0, 187500.0, 187500.0, 187500.0, 187500.0, 187500.0, 187500.0, 187500.0, 187500.0, 187500.0, 187500.0, 14531.852547151155, 187500.0, 187500.0, 187500.0, -0.0429375, -1.0371875, -0.0113125, 192.0, 127.0, 64.0, 111.5, 80.0, 127.5, 72.0, 0.0, 0.0, 0.0, 1.63999927388421E9, 0.0, 2021-12-20 12:21:13.884
138.0, 187500.0, 187500.0, 187500.0, 187500.0, 187500.0, 187500.0, 187500.0, 187500.0, 187500.0, 187500.0, 187500.0, 187500.0, 14574.678489527523, 187500.0, 187500.0, 187500.0, -0.0429375, -1.0371875, -0.0113125, 192.0, 0.0, 0.0, 0.0, 0.0, 0.0, 0.0, 0.0, 0.0, 0.0, 1.63999927389752E9, 0.0, 2021-12-20 12:21:13.897
140.0, 187500.0, 187500.0, 187500.0, 187500.0, 187500.0, 187500.0, 187500.0, 187500.0, 187500.0, 187500.0, 187500.0, 187500.0, 14570.699879014479, 187500.0, 187500.0, 187500.0, -0.0429375, -1.0371875, -0.0113125, 192.0, 0.0, 0.0, 0.0, 0.0, 0.0, 0.0, 0.0, 0.0, 0.0, 1.639999273904948E9, 0.0, 2021-12-20 12:21:13.904
142.0, 187500.0, 187500.0, 187500.0, 187500.0, 187500.0, 187500.0, 187500.0, 187500.0, 187500.0, 187500.0, 187500.0, 187500.0, 14607.043815498808, 187500.0, 187500.0, 187500.0, -0.0429375, -1.0371875, -0.0113125, 192.0, 0.0, 0.0, 0.0, 0.0, 0.0, 0.0, 0.0, 0.0, 0.0, 1.639999273913227E9, 0.0, 2021-12-20 12:21:13.913
144.0, 187500.0, 187500.0, 187500.0, 187500.0, 187500.0, 187500.0, 187500.0, 187500.0, 187500.0, 187500.0, 187500.0, 187500.0, 14622.08653951723, 187500.0, 187500.0, 187500.0, -0.0429375, -1.0371875, -0.0113125, 192.0, 0.0, 0.0, 0.0, 0.0, 0.0, 0.0, 0.0, 0.0, 0.0, 1.639999273921705E9, 0.0, 2021-12-20 12:21:13.921
146.0, 187500.0, 187500.0, 187500.0, 187500.0, 187500.0, 187500.0, 187500.0, 187500.0, 187500.0, 187500.0, 187500.0, 187500.0, 14661.917348136587, 187500.0, 187500.0, 187500.0, -0.0429375, -1.0371875, -0.0113125, 192.0, 0.0, 0.0, 0.0, 0.0, 0.0, 0.0, 0.0, 0.0, 0.0, 1.63999927392874E9, 0.0, 2021-12-20 12:21:13.928
148.0, 187500.0, 187500.0, 187500.0, 187500.0, 187500.0, 187500.0, 187500.0, 187500.0, 187500.0, 187500.0, 187500.0, 187500.0, 14694.126211896684, 187500.0, 187500.0, 187500.0, -0.046, -1.032, -0.01, 192.0, 127.0, 72.0, 111.5, 96.0, 127.5, 88.0, 0.0, 0.0, 0.0, 1.639999273934871E9, 0.0, 2021-12-20 12:21:13.934
150.0, 187500.0, 187500.0, 187500.0, 187500.0, 187500.0, 187500.0, 187500.0, 187500.0, 187500.0, 187500.0, 187500.0, 187500.0, 14713.326360383793, 187500.0, 187500.0, 187500.0, -0.046, -1.032, -0.01, 192.0, 0.0, 0.0, 0.0, 0.0, 0.0, 0.0, 0.0, 0.0, 0.0, 1.639999273943535E9, 0.0, 2021-12-20 12:21:13.943
152.0, 187500.0, 187500.0, 187500.0, 187500.0, 187500.0, 187500.0, 187500.0, 187500.0, 187500.0, 187500.0, 187500.0, 187500.0, 14753.984183547997, 187500.0, 187500.0, 187500.0, -0.046, -1.032, -0.01, 192.0, 0.0, 0.0, 0.0, 0.0, 0.0, 0.0, 0.0, 0.0, 0.0, 1.639999273950343E9, 0.0, 2021-12-20 12:21:13.950
154.0, 187500.0, 187500.0, 187500.0, 187500.0, 187500.0, 187500.0, 187500.0, 187500.0, 187500.0, 187500.0, 187500.0, 187500.0, 14785.790715907899, 187500.0, 187500.0, 187500.0, -0.046, -1.032, -0.01, 192.0, 0.0, 0.0, 0.0, 0.0, 0.0, 0.0, 0.0, 0.0, 0.0, 1.639999273958678E9, 0.0, 2021-12-20 12:21:13.958
156.0, 187500.0, 187500.0, 187500.0, 187500.0, 187500.0, 187500.0, 187500.0, 187500.0, 187500.0, 187500.0, 187500.0, 187500.0, 14835.74686476551, 187500.0, 187500.0, 187500.0, -0.046, -1.032, -0.01, 192.0, 0.0, 0.0, 0.0, 0.0, 0.0, 0.0, 0.0, 0.0, 0.0, 1.639999273964444E9, 0.0, 2021-12-20 12:21:13.964
158.0, 187500.0, 187500.0, 187500.0, 187500.0, 187500.0, 187500.0, 187500.0, 187500.0, 187500.0, 187500.0, 187500.0, 187500.0, 14905.059624321417, 187500.0, 187500.0, 187500.0, -0.038, -1.032, -0.01, 192.0, 127.0, 104.0, 111.5, 96.0, 127.5, 88.0, 0.0, 0.0, 0.0, 1.63999927397248E9, 0.0, 2021-12-20 12:21:13.972
160.0, 187500.0, 187500.0, 187500.0, 187500.0, 187500.0, 187500.0, 187500.0, 187500.0, 187500.0, 187500.0, 187500.0, 187500.0, 14980.854389769363, 187500.0, 187500.0, 187500.0, -0.038, -1.032, -0.01, 192.0, 0.0, 0.0, 0.0, 0.0, 0.0, 0.0, 0.0, 0.0, 0.0, 1.639999273981219E9, 0.0, 2021-12-20 12:21:13.981
162.0, 187500.0, 187500.0, 187500.0, 187500.0, 187500.0, 187500.0, 187500.0, 187500.0, 187500.0, 187500.0, 187500.0, 187500.0, 15082.621882274376, 187500.0, 187500.0, 187500.0, -0.038, -1.032, -0.01, 192.0, 0.0, 0.0, 0.0, 0.0, 0.0, 0.0, 0.0, 0.0, 0.0, 1.639999273988313E9, 0.0, 2021-12-20 12:21:13.988
164.0, 187500.0, 187500.0, 187500.0, 187500.0, 187500.0, 187500.0, 187500.0, 187500.0, 187500.0, 187500.0, 187500.0, 187500.0, 15162.507016957643, 187500.0, 187500.0, 187500.0, -0.038, -1.032, -0.01, 192.0, 0.0, 0.0, 0.0, 0.0, 0.0, 0.0, 0.0, 0.0, 0.0, 1.639999273995098E9, 0.0, 2021-12-20 12:21:13.995
166.0, 187500.0, 187500.0, 187500.0, 187500.0, 187500.0, 187500.0, 187500.0, 187500.0, 187500.0, 187500.0, 187500.0, 187500.0, 15227.282372389123, 187500.0, 187500.0, 187500.0, -0.038, -1.032, -0.01, 192.0, 0.0, 0.0, 0.0, 0.0, 0.0, 0.0, 0.0, 0.0, 0.0, 1.639999274003044E9, 0.0, 2021-12-20 12:21:14.003
168.0, 187500.0, 187500.0, 187500.0, 187500.0, 187500.0, 187500.0, 187500.0, 187500.0, 187500.0, 187500.0, 187500.0, 187500.0, 15289.062594063593, 187500.0, 187500.0, 187500.0, -0.034, -1.04, -0.008, 192.0, 127.0, 120.0, 111.5, 64.0, 127.5, 96.0, 0.0, 0.0, 0.0, 1.639999274011969E9, 0.0, 2021-12-20 12:21:14.011
170.0, 187500.0, 187500.0, 187500.0, 187500.0, 187500.0, 187500.0, 187500.0, 187500.0, 187500.0, 187500.0, 187500.0, 187500.0, 15361.191673420868, 187500.0, 187500.0, 187500.0, -0.034, -1.04, -0.008, 192.0, 0.0, 0.0, 0.0, 0.0, 0.0, 0.0, 0.0, 0.0, 0.0, 1.639999274026879E9, 0.0, 2021-12-20 12:21:14.026
172.0, 187500.0, 187500.0, 187500.0, 187500.0, 187500.0, 187500.0, 187500.0, 187500.0, 187500.0, 187500.0, 187500.0, 187500.0, 15438.372247025043, 187500.0, 187500.0, 187500.0, -0.034, -1.04, -0.008, 192.0, 0.0, 0.0, 0.0, 0.0, 0.0, 0.0, 0.0, 0.0, 0.0, 1.639999274032879E9, 0.0, 2021-12-20 12:21:14.032
174.0, 187500.0, 187500.0, 187500.0, 187500.0, 187500.0, 187500.0, 187500.0, 187500.0, 187500.0, 187500.0, 187500.0, 187500.0, 15490.340052883632, 187500.0, 187500.0, 187500.0, -0.034, -1.04, -0.008, 192.0, 0.0, 0.0, 0.0, 0.0, 0.0, 0.0, 0.0, 0.0, 0.0, 1.639999274039872E9, 0.0, 2021-12-20 12:21:14.039
176.0, 187500.0, 187500.0, 187500.0, 187500.0, 187500.0, 187500.0, 187500.0, 187500.0, 187500.0, 187500.0, 187500.0, 187500.0, 15534.775320860783, 187500.0, 187500.0, 187500.0, -0.034, -1.04, -0.008, 192.0, 0.0, 0.0, 0.0, 0.0, 0.0, 0.0, 0.0, 0.0, 0.0, 1.639999274047987E9, 0.0, 2021-12-20 12:21:14.047
178.0, 187500.0, 187500.0, 187500.0, 187500.0, 187500.0, 187500.0, 187500.0, 187500.0, 187500.0, 187500.0, 187500.0, 187500.0, 15652.412551929065, 187500.0, 187500.0, 187500.0, -0.034, -1.04, -0.006, 192.0, 127.0, 120.0, 111.5, 64.0, 127.5, 104.0, 0.0, 0.0, 0.0, 1.63999927405953E9, 0.0, 2021-12-20 12:21:14.059
180.0, 187500.0, 187500.0, 187500.0, 187500.0, 187500.0, 187500.0, 187500.0, 187500.0, 187500.0, 187500.0, 187500.0, 187500.0, 15761.667878826605, 187500.0, 187500.0, 187500.0, -0.034, -1.04, -0.006, 192.0, 0.0, 0.0, 0.0, 0.0, 0.0, 0.0, 0.0, 0.0, 0.0, 1.639999274062398E9, 0.0, 2021-12-20 12:21:14.062
182.0, 187500.0, 187500.0, 187500.0, 187500.0, 187500.0, 187500.0, 187500.0, 187500.0, 187500.0, 187500.0, 187500.0, 187500.0, 15886.345909398307, 187500.0, 187500.0, 187500.0, -0.034, -1.04, -0.006, 192.0, 0.0, 0.0, 0.0, 0.0, 0.0, 0.0, 0.0, 0.0, 0.0, 1.639999274069913E9, 0.0, 2021-12-20 12:21:14.069
184.0, 187500.0, 187500.0, 187500.0, 187500.0, 187500.0, 187500.0, 187500.0, 187500.0, 187500.0, 187500.0, 187500.0, 187500.0, 16029.55353612346, 187500.0, 187500.0, 187500.0, -0.034, -1.04, -0.006, 192.0, 0.0, 0.0, 0.0, 0.0, 0.0, 0.0, 0.0, 0.0, 0.0, 1.639999274077017E9, 0.0, 2021-12-20 12:21:14.077
186.0, 187500.0, 187500.0, 187500.0, 187500.0, 187500.0, 187500.0, 187500.0, 187500.0, 187500.0, 187500.0, 187500.0, 187500.0, 16178.796133851545, 187500.0, 187500.0, 187500.0, -0.034, -1.04, -0.006, 192.0, 0.0, 0.0, 0.0, 0.0, 0.0, 0.0, 0.0, 0.0, 0.0, 1.639999274088647E9, 0.0, 2021-12-20 12:21:14.088
188.0, 187500.0, 187500.0, 187500.0, 187500.0, 187500.0, 187500.0, 187500.0, 187500.0, 187500.0, 187500.0, 187500.0, 187500.0, 16301.171934744352, 187500.0, 187500.0, 187500.0, -0.038, -1.036, -0.012, 192.0, 127.0, 104.0, 111.5, 80.0, 127.5, 80.0, 0.0, 0.0, 0.0, 1.639999274095683E9, 0.0, 2021-12-20 12:21:14.095
190.0, 187500.0, 187500.0, 187500.0, 187500.0, 187500.0, 187500.0, 187500.0, 187500.0, 187500.0, 187500.0, 187500.0, 187500.0, 16385.929749718875, 187500.0, 187500.0, 187500.0, -0.038, -1.036, -0.012, 192.0, 0.0, 0.0, 0.0, 0.0, 0.0, 0.0, 0.0, 0.0, 0.0, 1.639999274099616E9, 0.0, 2021-12-20 12:21:14.099
192.0, 187500.0, 187500.0, 187500.0, 187500.0, 187500.0, 187500.0, 187500.0, 187500.0, 187500.0, 187500.0, 187500.0, 187500.0, 16442.323200979616, 187500.0, 187500.0, 187500.0, -0.038, -1.036, -0.012, 192.0, 0.0, 0.0, 0.0, 0.0, 0.0, 0.0, 0.0, 0.0, 0.0, 1.639999274107579E9, 0.0, 2021-12-20 12:21:14.107
194.0, 187500.0, 187500.0, 187500.0, 187500.0, 187500.0, 187500.0, 187500.0, 187500.0, 187500.0, 187500.0, 187500.0, 187500.0, 16479.471800264335, 187500.0, 187500.0, 187500.0, -0.038, -1.036, -0.012, 192.0, 0.0, 0.0, 0.0, 0.0, 0.0, 0.0, 0.0, 0.0, 0.0, 1.639999274116525E9, 0.0, 2021-12-20 12:21:14.116
196.0, 187500.0, 187500.0, 187500.0, 187500.0, 187500.0, 187500.0, 187500.0, 187500.0, 187500.0, 187500.0, 187500.0, 187500.0, 16542.771940561764, 187500.0, 187500.0, 187500.0, -0.038, -1.036, -0.012, 192.0, 0.0, 0.0, 0.0, 0.0, 0.0, 0.0, 0.0, 0.0, 0.0, 1.639999274123759E9, 0.0, 2021-12-20 12:21:14.123
198.0, 187500.0, 187500.0, 187500.0, 187500.0, 187500.0, 187500.0, 187500.0, 187500.0, 187500.0, 187500.0, 187500.0, 187500.0, 16674.334308425703, 187500.0, 187500.0, 187500.0, -0.038, -1.036, -0.009000000000000001, 192.0, 127.0, 104.0, 111.5, 80.0, 127.5, 104.0, 0.0, 0.0, 0.0, 1.639999274130309E9, 0.0, 2021-12-20 12:21:14.130
200.0, 187500.0, 187500.0, 187500.0, 187500.0, 187500.0, 187500.0, 187500.0, 187500.0, 187500.0, 187500.0, 187500.0, 187500.0, 16834.95394408154, 187500.0, 187500.0, 187500.0, -0.038, -1.036, -0.009000000000000001, 192.0, 0.0, 0.0, 0.0, 0.0, 0.0, 0.0, 0.0, 0.0, 0.0, 1.639999274144524E9, 0.0, 2021-12-20 12:21:14.144
202.0, 187500.0, 187500.0, 187500.0, 187500.0, 187500.0, 187500.0, 187500.0, 187500.0, 187500.0, 187500.0, 187500.0, 187500.0, 16970.539625947433, 187500.0, 187500.0, 187500.0, -0.038, -1.036, -0.009000000000000001, 192.0, 0.0, 0.0, 0.0, 0.0, 0.0, 0.0, 0.0, 0.0, 0.0, 1.639999274152834E9, 0.0, 2021-12-20 12:21:14.152
204.0, 187500.0, 187500.0, 187500.0, 187500.0, 187500.0, 187500.0, 187500.0, 187500.0, 187500.0, 187500.0, 187500.0, 187500.0, 17093.13894428479, 187500.0, 187500.0, 187500.0, -0.038, -1.036, -0.009000000000000001, 192.0, 0.0, 0.0, 0.0, 0.0, 0.0, 0.0, 0.0, 0.0, 0.0, 1.63999927416054E9, 0.0, 2021-12-20 12:21:14.160
206.0, 187500.0, 187500.0, 187500.0, 187500.0, 187500.0, 187500.0, 187500.0, 187500.0, 187500.0, 187500.0, 187500.0, 187500.0, 17205.858791572904, 187500.0, 187500.0, 187500.0, -0.038, -1.036, -0.009000000000000001, 192.0, 0.0, 0.0, 0.0, 0.0, 0.0, 0.0, 0.0, 0.0, 0.0, 1.639999274168188E9, 0.0, 2021-12-20 12:21:14.168
208.0, 187500.0, 187500.0, 187500.0, 187500.0, 187500.0, 187500.0, 187500.0, 187500.0, 187500.0, 187500.0, 187500.0, 187500.0, 17322.601952862973, 187500.0, 187500.0, 187500.0, -0.039, -1.0350000000000001, -0.007500000000000001, 192.0, 127.0, 96.0, 111.5, 88.0, 127.5, 104.0, 0.0, 0.0, 0.0, 1.639999274177237E9, 0.0, 2021-12-20 12:21:14.177
210.0, 187500.0, 187500.0, 187500.0, 187500.0, 187500.0, 187500.0, 187500.0, 187500.0, 187500.0, 187500.0, 187500.0, 187500.0, 17456.31008819462, 187500.0, 187500.0, 187500.0, -0.039, -1.0350000000000001, -0.007500000000000001, 192.0, 0.0, 0.0, 0.0, 0.0, 0.0, 0.0, 0.0, 0.0, 0.0, 1.63999927418581E9, 0.0, 2021-12-20 12:21:14.185
212.0, 187500.0, 187500.0, 187500.0, 187500.0, 187500.0, 187500.0, 187500.0, 187500.0, 187500.0, 187500.0, 187500.0, 187500.0, 17664.673050006993, 187500.0, 187500.0, 187500.0, -0.039, -1.0350000000000001, -0.007500000000000001, 192.0, 0.0, 0.0, 0.0, 0.0, 0.0, 0.0, 0.0, 0.0, 0.0, 1.639999274192074E9, 0.0, 2021-12-20 12:21:14.192
214.0, 187500.0, 187500.0, 187500.0, 187500.0, 187500.0, 187500.0, 187500.0, 187500.0, 187500.0, 187500.0, 187500.0, 187500.0, 17902.58501798928, 187500.0, 187500.0, 187500.0, -0.039, -1.0350000000000001, -0.007500000000000001, 192.0, 0.0, 0.0, 0.0, 0.0, 0.0, 0.0, 0.0, 0.0, 0.0, 1.639999274197536E9, 0.0, 2021-12-20 12:21:14.197
216.0, 187500.0, 187500.0, 187500.0, 187500.0, 187500.0, 187500.0, 187500.0, 187500.0, 187500.0, 187500.0, 187500.0, 187500.0, 18129.25405851055, 187500.0, 187500.0, 187500.0, -0.039, -1.0350000000000001, -0.007500000000000001, 192.0, 0.0, 0.0, 0.0, 0.0, 0.0, 0.0, 0.0, 0.0, 0.0, 1.639999274204255E9, 0.0, 2021-12-20 12:21:14.204
218.0, 187500.0, 187500.0, 187500.0, 187500.0, 187500.0, 187500.0, 187500.0, 187500.0, 187500.0, 187500.0, 187500.0, 187500.0, 18310.750223487645, 187500.0, 187500.0, 187500.0, -0.037500000000000006, -1.0355, -0.00975, 192.0, 127.0, 112.0, 111.5, 80.0, 127.5, 80.0, 0.0, 0.0, 0.0, 1.639999274212885E9, 0.0, 2021-12-20 12:21:14.212
220.0, 187500.0, 187500.0, 187500.0, 187500.0, 187500.0, 187500.0, 187500.0, 187500.0, 187500.0, 187500.0, 187500.0, 187500.0, 18476.175484201372, 187500.0, 187500.0, 187500.0, -0.037500000000000006, -1.0355, -0.00975, 192.0, 0.0, 0.0, 0.0, 0.0, 0.0, 0.0, 0.0, 0.0, 0.0, 1.639999274221118E9, 0.0, 2021-12-20 12:21:14.221
222.0, 187500.0, 187500.0, 187500.0, 187500.0, 187500.0, 187500.0, 187500.0, 187500.0, 187500.0, 187500.0, 187500.0, 187500.0, 18655.212957288382, 187500.0, 187500.0, 187500.0, -0.037500000000000006, -1.0355, -0.00975, 192.0, 0.0, 0.0, 0.0, 0.0, 0.0, 0.0, 0.0, 0.0, 0.0, 1.639999274227396E9, 0.0, 2021-12-20 12:21:14.227
224.0, 187500.0, 187500.0, 187500.0, 187500.0, 187500.0, 187500.0, 187500.0, 187500.0, 187500.0, 187500.0, 187500.0, 187500.0, 18850.92483173905, 187500.0, 187500.0, 187500.0, -0.037500000000000006, -1.0355, -0.00975, 192.0, 0.0, 0.0, 0.0, 0.0, 0.0, 0.0, 0.0, 0.0, 0.0, 1.639999274234855E9, 0.0, 2021-12-20 12:21:14.234
226.0, 187500.0, 187500.0, 187500.0, 187500.0, 187500.0, 187500.0, 187500.0, 187500.0, 187500.0, 187500.0, 187500.0, 187500.0, 19053.655153948683, 187500.0, 187500.0, 187500.0, -0.037500000000000006, -1.0355, -0.00975, 192.0, 0.0, 0.0, 0.0, 0.0, 0.0, 0.0, 0.0, 0.0, 0.0, 1.639999274243973E9, 0.0, 2021-12-20 12:21:14.243
228.0, 187500.0, 187500.0, 187500.0, 187500.0, 187500.0, 187500.0, 187500.0, 187500.0, 187500.0, 187500.0, 187500.0, 187500.0, 19264.52151114005, 187500.0, 187500.0, 187500.0, -0.03975000000000001, -1.03375, -0.007875, 192.0, 127.0, 88.0, 111.5, 96.0, 127.5, 104.0, 0.0, 0.0, 0.0, 1.639999274251129E9, 0.0, 2021-12-20 12:21:14.251
230.0, 187500.0, 187500.0, 187500.0, 187500.0, 187500.0, 187500.0, 187500.0, 187500.0, 187500.0, 187500.0, 187500.0, 187500.0, 19431.153766054365, 187500.0, 187500.0, 187500.0, -0.03975000000000001, -1.03375, -0.007875, 192.0, 0.0, 0.0, 0.0, 0.0, 0.0, 0.0, 0.0, 0.0, 0.0, 1.639999274257033E9, 0.0, 2021-12-20 12:21:14.257
232.0, 187500.0, 187500.0, 187500.0, 187500.0, 187500.0, 187500.0, 187500.0, 187500.0, 187500.0, 187500.0, 187500.0, 187500.0, 19602.144611137464, 187500.0, 187500.0, 187500.0, -0.03975000000000001, -1.03375, -0.007875, 192.0, 0.0, 0.0, 0.0, 0.0, 0.0, 0.0, 0.0, 0.0, 0.0, 1.639999274273078E9, 0.0, 2021-12-20 12:21:14.273
234.0, 187500.0, 187500.0, 187500.0, 187500.0, 187500.0, 187500.0, 187500.0, 187500.0, 187500.0, 187500.0, 187500.0, 187500.0, 19843.297582065774, 187500.0, 187500.0, 187500.0, -0.03975000000000001, -1.03375, -0.007875, 192.0, 0.0, 0.0, 0.0, 0.0, 0.0, 0.0, 0.0, 0.0, 0.0, 1.639999274280209E9, 0.0, 2021-12-20 12:21:14.280
236.0, 187500.0, 187500.0, 187500.0, 187500.0, 187500.0, 187500.0, 187500.0, 187500.0, 187500.0, 187500.0, 187500.0, 187500.0, 20066.658564407655, 187500.0, 187500.0, 187500.0, -0.03975000000000001, -1.03375, -0.007875, 192.0, 0.0, 0.0, 0.0, 0.0, 0.0, 0.0, 0.0, 0.0, 0.0, 1.639999274287109E9, 0.0, 2021-12-20 12:21:14.287
238.0, 187500.0, 187500.0, 187500.0, 187500.0, 187500.0, 187500.0, 187500.0, 187500.0, 187500.0, 187500.0, 187500.0, 187500.0, 20229.558077997932, 187500.0, 187500.0, 187500.0, -0.03987500000000001, -1.033875, -0.008937500000000001, 192.0, 127.0, 96.0, 111.5, 88.0, 127.5, 88.0, 0.0, 0.0, 0.0, 1.639999274295733E9, 0.0, 2021-12-20 12:21:14.295
240.0, 187500.0, 187500.0, 187500.0, 187500.0, 187500.0, 187500.0, 187500.0, 187500.0, 187500.0, 187500.0, 187500.0, 187500.0, 20333.53839320402, 187500.0, 187500.0, 187500.0, -0.03987500000000001, -1.033875, -0.008937500000000001, 192.0, 0.0, 0.0, 0.0, 0.0, 0.0, 0.0, 0.0, 0.0, 0.0, 1.639999274304209E9, 0.0, 2021-12-20 12:21:14.304
242.0, 187500.0, 187500.0, 187500.0, 187500.0, 187500.0, 187500.0, 187500.0, 187500.0, 187500.0, 187500.0, 187500.0, 187500.0, 20424.487641392665, 187500.0, 187500.0, 187500.0, -0.03987500000000001, -1.033875, -0.008937500000000001, 192.0, 0.0, 0.0, 0.0, 0.0, 0.0, 0.0, 0.0, 0.0, 0.0, 1.639999274310984E9, 0.0, 2021-12-20 12:21:14.310
244.0, 187500.0, 187500.0, 187500.0, 187500.0, 187500.0, 187500.0, 187500.0, 187500.0, 187500.0, 187500.0, 187500.0, 187500.0, 20548.96450626427, 187500.0, 187500.0, 187500.0, -0.03987500000000001, -1.033875, -0.008937500000000001, 192.0, 0.0, 0.0, 0.0, 0.0, 0.0, 0.0, 0.0, 0.0, 0.0, 1.639999274317728E9, 0.0, 2021-12-20 12:21:14.317
246.0, 187500.0, 187500.0, 187500.0, 187500.0, 187500.0, 187500.0, 187500.0, 187500.0, 187500.0, 187500.0, 187500.0, 187500.0, 20679.85632179455, 187500.0, 187500.0, 187500.0, -0.03987500000000001, -1.033875, -0.008937500000000001, 192.0, 0.0, 0.0, 0.0, 0.0, 0.0, 0.0, 0.0, 0.0, 0.0, 1.639999274325645E9, 0.0, 2021-12-20 12:21:14.325
248.0, 187500.0, 187500.0, 187500.0, 187500.0, 187500.0, 187500.0, 187500.0, 187500.0, 187500.0, 187500.0, 187500.0, 187500.0, 20855.630440191086, 187500.0, 187500.0, 187500.0, -0.03987500000000001, -1.033875, -0.008937500000000001, 192.0, 0.0, 0.0, 0.0, 0.0, 0.0, 0.0, 0.0, 0.0, 0.0, 1.639999274334263E9, 0.0, 2021-12-20 12:21:14.334
